Data from Energiesparlampe_USB4F035431__0__12-32-18-324.txt Node

Date: Tue Feb 02 12:32:18 CET 2021
User: Praktikum
Spectrometer: USB4F03543
Trigger mode: 4
Integration Time (sec): 1,000000E-1
Scans to average: 1
Electric dark correction enabled: true
Nonlinearity correction enabled: false
Boxcar width: 0
XAxis mode: Wavelengths
Number of Pixels in Spectrum: 3648
>>>>>Begin Spectral Data<<<<<
179,969	-96,43
180,181	-96,43
180,394	-96,43
180,606	-129,19
180,819	-123,05
181,031	-28,84
181,243	132,95
181,456	26,45
181,668	87,89
181,88	-18,6
182,093	-6,31
182,305	-71,85
182,518	-47,27
182,73	48,98
182,942	-24,75
183,155	-43,18
183,367	-55,47
183,579	89,94
183,791	28,5
184,004	-45,23
184,216	36,69
184,428	-8,36
184,641	42,84
184,853	-47,27
185,065	10,07
185,277	57,17
185,49	34,64
185,702	-88,23
185,914	-57,51
186,126	71,51
186,338	81,75
186,551	59,22
186,763	-4,27
186,975	-55,47
187,187	-6,31
187,399	5,97
187,612	-18,6
187,824	-32,94
188,036	44,88
188,248	-6,31
188,46	48,98
188,672	-4,27
188,885	-28,84
189,097	28,5
189,309	-73,9
189,521	65,36
189,733	14,17
189,945	-0,17
190,157	24,4
190,369	-75,95
190,581	-67,75
190,794	91,99
191,006	-114,86
191,218	16,21
191,43	-24,75
191,642	-84,14
191,854	24,4
192,066	53,08
192,278	-0,17
192,49	-112,81
192,702	26,45
192,914	73,56
193,126	36,69
193,338	-0,17
193,55	-8,36
193,762	24,4
193,974	-41,13
194,186	-55,47
194,398	-82,09
194,61	16,21
194,822	65,36
195,034	44,88
195,246	108,37
195,457	12,12
195,669	46,93
195,881	-22,7
196,093	-18,6
196,305	30,55
196,517	-116,9
196,729	8,02
196,941	10,07
197,153	36,69
197,365	46,93
197,576	53,08
197,788	20,31
198	-22,7
198,212	14,17
198,424	106,32
198,636	-57,51
198,847	26,45
199,059	-39,08
199,271	-18,6
199,483	-47,27
199,695	-24,75
199,906	106,32
200,118	5,97
200,33	42,84
200,542	311,12
200,753	-6,31
200,965	-2,22
201,177	-26,79
201,389	48,98
201,6	-92,33
201,812	-6,31
202,024	3,93
202,235	-37,03
202,447	71,51
202,659	30,55
202,871	18,26
203,082	-24,75
203,294	-82,09
203,506	40,79
203,717	12,12
203,929	40,79
204,141	18,26
204,352	75,6
204,564	-65,71
204,775	40,79
204,987	16,21
205,199	-12,46
205,41	38,74
205,622	36,69
205,833	24,4
206,045	28,5
206,257	-2,22
206,468	22,36
206,68	-10,41
206,891	-16,55
207,103	3,93
207,314	14,17
207,526	22,36
207,737	-104,62
207,949	57,17
208,16	-10,41
208,372	32,6
208,583	-14,51
208,795	5,97
209,006	22,36
209,218	55,12
209,429	-84,14
209,641	-32,94
209,852	-30,89
210,064	34,64
210,275	-0,17
210,487	-16,55
210,698	63,32
210,909	38,74
211,121	32,6
211,332	-6,31
211,544	30,55
211,755	55,12
211,966	120,66
212,178	-20,65
212,389	112,47
212,6	-8,36
212,812	91,99
213,023	-6,31
213,234	79,7
213,446	5,97
213,657	-71,85
213,868	75,6
214,08	75,6
214,291	42,84
214,502	48,98
214,714	-65,71
214,925	10,07
215,136	10,07
215,347	-37,03
215,559	-14,51
215,77	16,21
215,981	112,47
216,192	-51,37
216,404	3,93
216,615	18,26
216,826	57,17
217,037	-16,55
217,249	14,17
217,46	73,56
217,671	53,08
217,882	-20,65
218,093	-18,6
218,304	30,55
218,516	91,99
218,727	-73,9
218,938	-53,42
219,149	102,23
219,36	30,55
219,571	36,69
219,782	-51,37
219,993	48,98
220,205	-112,81
220,416	-47,27
220,627	16,21
220,838	24,4
221,049	161,62
221,26	73,56
221,471	32,6
221,682	5,97
221,893	46,93
222,104	-34,99
222,315	-22,7
222,526	-47,27
222,737	-41,13
222,948	-32,94
223,159	-18,6
223,37	16,21
223,581	-16,55
223,792	-57,51
224,003	-80,04
224,214	-65,71
224,425	-20,65
224,636	48,98
224,847	-37,03
225,058	22,36
225,269	28,5
225,48	-28,84
225,691	42,84
225,902	57,17
226,112	-12,46
226,323	-71,85
226,534	-84,14
226,745	-2,22
226,956	-14,51
227,167	65,36
227,378	120,66
227,589	38,74
227,799	94,04
228,01	-26,79
228,221	1,88
228,432	-0,17
228,643	-20,65
228,853	-61,61
229,064	1,88
229,275	14,17
229,486	-12,46
229,697	-4,27
229,907	-4,27
230,118	59,22
230,329	-73,9
230,54	-24,75
230,75	67,41
230,961	59,22
231,172	-71,85
231,383	-6,31
231,593	-41,13
231,804	8,02
232,015	-8,36
232,225	79,7
232,436	-4,27
232,647	83,8
232,857	96,08
233,068	59,22
233,279	87,89
233,489	28,5
233,7	-12,46
233,91	-30,89
234,121	-6,31
234,332	32,6
234,542	51,03
234,753	-14,51
234,964	120,66
235,174	1,88
235,385	12,12
235,595	-16,55
235,806	87,89
236,016	14,17
236,227	-71,85
236,437	-59,56
236,648	-8,36
236,858	48,98
237,069	-80,04
237,279	-39,08
237,49	-22,7
237,7	3,93
237,911	14,17
238,121	-53,42
238,332	-37,03
238,542	-34,99
238,753	-12,46
238,963	-75,95
239,174	100,18
239,384	-37,03
239,595	-41,13
239,805	16,21
240,015	-10,41
240,226	16,21
240,436	-4,27
240,647	42,84
240,857	-16,55
241,067	51,03
241,278	102,23
241,488	-24,75
241,698	108,37
241,909	-10,41
242,119	34,64
242,329	100,18
242,54	46,93
242,75	10,07
242,96	5,97
243,171	-4,27
243,381	-43,18
243,591	-67,75
243,801	71,51
244,012	96,08
244,222	-47,27
244,432	-116,9
244,642	-37,03
244,853	-112,81
245,063	-18,6
245,273	1,88
245,483	-30,89
245,694	-0,17
245,904	-18,6
246,114	48,98
246,324	-92,33
246,534	16,21
246,744	-39,08
246,955	-8,36
247,165	120,66
247,375	73,56
247,585	5,97
247,795	-75,95
248,005	14,17
248,215	22,36
248,425	48,98
248,636	132,95
248,846	18,26
249,056	-22,7
249,266	-30,89
249,476	-10,41
249,686	-28,84
249,896	-41,13
250,106	44,88
250,316	-34,99
250,526	46,93
250,736	-39,08
250,946	89,94
251,156	155,47
251,366	-30,89
251,576	69,46
251,786	87,89
251,996	-55,47
252,206	-0,17
252,416	57,17
252,626	12,12
252,836	-51,37
253,046	-8,36
253,256	48,98
253,466	-57,51
253,676	28,5
253,885	61,27
254,095	-12,46
254,305	22,36
254,515	24,4
254,725	-22,7
254,935	59,22
255,145	55,12
255,355	40,79
255,564	3,93
255,774	18,26
255,984	77,65
256,194	32,6
256,404	14,17
256,614	-6,31
256,823	75,6
257,033	-37,03
257,243	34,64
257,453	14,17
257,662	-14,51
257,872	91,99
258,082	26,45
258,292	-71,85
258,501	91,99
258,711	169,81
258,921	67,41
259,131	-94,38
259,34	-10,41
259,55	-4,27
259,76	-55,47
259,969	32,6
260,179	-24,75
260,389	-12,46
260,598	96,08
260,808	69,46
261,018	12,12
261,227	71,51
261,437	-12,46
261,647	1,88
261,856	-34,99
262,066	48,98
262,275	116,56
262,485	-28,84
262,694	65,36
262,904	20,31
263,114	16,21
263,323	-22,7
263,533	28,5
263,742	-41,13
263,952	-22,7
264,161	8,02
264,371	57,17
264,58	73,56
264,79	5,97
264,999	28,5
265,209	32,6
265,418	38,74
265,628	-16,55
265,837	34,64
266,047	18,26
266,256	137,04
266,466	-2,22
266,675	26,45
266,884	18,26
267,094	-10,41
267,303	44,88
267,513	30,55
267,722	149,33
267,931	-4,27
268,141	34,64
268,35	34,64
268,559	79,7
268,769	34,64
268,978	-57,51
269,187	14,17
269,397	8,02
269,606	-69,8
269,815	12,12
270,025	48,98
270,234	-4,27
270,443	-67,75
270,653	51,03
270,862	8,02
271,071	5,97
271,28	-24,75
271,49	42,84
271,699	-82,09
271,908	96,08
272,117	34,64
272,327	-77,99
272,536	-8,36
272,745	-24,75
272,954	-0,17
273,163	3,93
273,372	122,71
273,582	24,4
273,791	81,75
274	24,4
274,209	14,17
274,418	40,79
274,627	75,6
274,836	-14,51
275,046	-4,27
275,255	1,88
275,464	-49,32
275,673	-6,31
275,882	-12,46
276,091	10,07
276,3	42,84
276,509	22,36
276,718	16,21
276,927	10,07
277,136	116,56
277,345	24,4
277,554	57,17
277,763	38,74
277,972	40,79
278,181	48,98
278,39	-16,55
278,599	48,98
278,808	18,26
279,017	55,12
279,226	-100,52
279,435	24,4
279,644	-55,47
279,853	61,27
280,062	83,8
280,271	-55,47
280,48	-30,89
280,688	34,64
280,897	59,22
281,106	-41,13
281,315	-16,55
281,524	46,93
281,733	-53,42
281,942	57,17
282,151	-34,99
282,359	91,99
282,568	-59,56
282,777	30,55
282,986	5,97
283,195	22,36
283,403	-10,41
283,612	40,79
283,821	-37,03
284,03	-8,36
284,238	10,07
284,447	51,03
284,656	-34,99
284,865	61,27
285,073	-30,89
285,282	3,93
285,491	57,17
285,699	-14,51
285,908	-12,46
286,117	28,5
286,325	-30,89
286,534	85,84
286,743	-6,31
286,951	10,07
287,16	-65,71
287,369	-4,27
287,577	-43,18
287,786	18,26
287,995	-14,51
288,203	40,79
288,412	-57,51
288,62	8,02
288,829	-55,47
289,037	79,7
289,246	16,21
289,455	26,45
289,663	30,55
289,872	120,66
290,08	5,97
290,289	59,22
290,497	-63,66
290,706	24,4
290,914	-73,9
291,123	-18,6
291,331	-8,36
291,54	48,98
291,748	91,99
291,957	18,26
292,165	10,07
292,373	10,07
292,582	-51,37
292,79	28,5
292,999	87,89
293,207	3,93
293,415	34,64
293,624	-57,51
293,832	18,26
294,041	-0,17
294,249	18,26
294,457	-12,46
294,666	81,75
294,874	-75,95
295,082	-16,55
295,291	-2,22
295,499	63,32
295,707	40,79
295,915	75,6
296,124	46,93
296,332	-41,13
296,54	10,07
296,749	108,37
296,957	98,13
297,165	-6,31
297,373	-14,51
297,581	16,21
297,79	32,6
297,998	-22,7
298,206	8,02
298,414	34,64
298,622	63,32
298,831	14,17
299,039	-39,08
299,247	12,12
299,455	-10,41
299,663	122,71
299,871	-14,51
300,08	16,21
300,288	-18,6
300,496	16,21
300,704	55,12
300,912	-16,55
301,12	16,21
301,328	-6,31
301,536	-28,84
301,744	-55,47
301,952	12,12
302,16	-8,36
302,368	-67,75
302,576	67,41
302,784	12,12
302,992	-90,28
303,2	-20,65
303,408	-0,17
303,616	-6,31
303,824	71,51
304,032	32,6
304,24	63,32
304,448	38,74
304,656	-80,04
304,864	34,64
305,072	42,84
305,28	77,65
305,488	-20,65
305,696	61,27
305,904	69,46
306,111	-41,13
306,319	-34,99
306,527	-6,31
306,735	46,93
306,943	104,28
307,151	3,93
307,359	-14,51
307,566	5,97
307,774	16,21
307,982	20,31
308,19	10,07
308,398	12,12
308,605	-43,18
308,813	-0,17
309,021	-39,08
309,229	24,4
309,436	-73,9
309,644	85,84
309,852	145,24
310,06	10,07
310,267	-55,47
310,475	89,94
310,683	34,64
310,89	55,12
311,098	75,6
311,306	-14,51
311,513	18,26
311,721	-12,46
311,929	-4,27
312,136	-6,31
312,344	-18,6
312,552	18,26
312,759	-22,7
312,967	91,99
313,174	69,46
313,382	-12,46
313,589	51,03
313,797	10,07
314,005	30,55
314,212	30,55
314,42	-28,84
314,627	-20,65
314,835	1,88
315,042	22,36
315,25	-47,27
315,457	-22,7
315,665	-114,86
315,872	-0,17
316,08	36,69
316,287	-12,46
316,495	274,26
316,702	-65,71
316,909	-102,57
317,117	10,07
317,324	61,27
317,532	44,88
317,739	-80,04
317,946	1,88
318,154	-43,18
318,361	-12,46
318,569	46,93
318,776	-55,47
318,983	-100,52
319,191	18,26
319,398	22,36
319,605	-12,46
319,813	26,45
320,02	-32,94
320,227	-20,65
320,434	75,6
320,642	-6,31
320,849	-6,31
321,056	3,93
321,264	34,64
321,471	-8,36
321,678	46,93
321,885	63,32
322,092	89,94
322,3	34,64
322,507	-34,99
322,714	18,26
322,921	-47,27
323,128	-6,31
323,336	-47,27
323,543	57,17
323,75	44,88
323,957	18,26
324,164	-0,17
324,371	3,93
324,578	-98,47
324,786	51,03
324,993	-30,89
325,2	75,6
325,407	-84,14
325,614	16,21
325,821	71,51
326,028	81,75
326,235	10,07
326,442	-0,17
326,649	61,27
326,856	-6,31
327,063	-4,27
327,27	-43,18
327,477	-12,46
327,684	-16,55
327,891	-39,08
328,098	5,97
328,305	128,85
328,512	-51,37
328,719	124,76
328,926	30,55
329,133	-39,08
329,34	153,43
329,546	-22,7
329,753	-8,36
329,96	-82,09
330,167	42,84
330,374	91,99
330,581	16,21
330,788	-61,61
330,995	26,45
331,201	20,31
331,408	26,45
331,615	-59,56
331,822	36,69
332,029	-18,6
332,235	-0,17
332,442	-61,61
332,649	-73,9
332,856	-61,61
333,062	26,45
333,269	-10,41
333,476	42,84
333,683	73,56
333,889	42,84
334,096	91,99
334,303	81,75
334,509	59,22
334,716	89,94
334,923	30,55
335,129	-41,13
335,336	28,5
335,543	-0,17
335,749	5,97
335,956	89,94
336,163	-80,04
336,369	32,6
336,576	57,17
336,782	-22,7
336,989	-41,13
337,196	18,26
337,402	-22,7
337,609	-16,55
337,815	-12,46
338,022	34,64
338,228	30,55
338,435	194,39
338,641	55,12
338,848	67,41
339,054	124,76
339,261	61,27
339,467	-51,37
339,674	40,79
339,88	3,93
340,087	16,21
340,293	16,21
340,5	89,94
340,706	51,03
340,912	32,6
341,119	-2,22
341,325	1,88
341,532	-30,89
341,738	-12,46
341,944	73,56
342,151	1,88
342,357	10,07
342,563	96,08
342,77	-2,22
342,976	65,36
343,182	194,39
343,389	71,51
343,595	-0,17
343,801	44,88
344,007	59,22
344,214	-28,84
344,42	18,26
344,626	-47,27
344,832	10,07
345,039	-2,22
345,245	79,7
345,451	40,79
345,657	-34,99
345,864	46,93
346,07	40,79
346,276	59,22
346,482	141,14
346,688	128,85
346,894	-8,36
347,1	75,6
347,307	87,89
347,513	73,56
347,719	85,84
347,925	83,8
348,131	20,31
348,337	130,9
348,543	-24,75
348,749	77,65
348,955	165,71
349,161	26,45
349,367	44,88
349,573	94,04
349,779	77,65
349,985	114,52
350,191	-20,65
350,397	91,99
350,603	112,47
350,809	36,69
351,015	81,75
351,221	51,03
351,427	104,28
351,633	81,75
351,839	145,24
352,045	120,66
352,251	169,81
352,457	89,94
352,663	83,8
352,869	124,76
353,075	98,13
353,28	53,08
353,486	65,36
353,692	46,93
353,898	75,6
354,104	32,6
354,31	204,63
354,515	57,17
354,721	57,17
354,927	51,03
355,133	75,6
355,339	14,17
355,544	102,23
355,75	89,94
355,956	157,52
356,162	165,71
356,367	46,93
356,573	96,08
356,779	67,41
356,984	83,8
357,19	157,52
357,396	116,56
357,602	112,47
357,807	114,52
358,013	161,62
358,218	102,23
358,424	71,51
358,63	110,42
358,835	87,89
359,041	24,4
359,247	118,61
359,452	73,56
359,658	-4,27
359,863	98,13
360,069	155,47
360,274	114,52
360,48	135
360,685	81,75
360,891	116,56
361,097	104,28
361,302	67,41
361,508	157,52
361,713	100,18
361,918	204,63
362,124	100,18
362,329	139,09
362,535	149,33
362,74	63,32
362,946	165,71
363,151	145,24
363,357	235,35
363,562	331,6
363,767	483,15
363,973	1048,39
364,178	1984,31
364,383	3137,32
364,589	4069,14
364,794	4577,04
365	4697,87
365,205	3841,82
365,41	2903,85
365,615	2377,52
365,821	1654,59
366,026	1468,22
366,231	1150,79
366,437	1040,2
366,642	466,77
366,847	354,13
367,052	167,76
367,258	67,41
367,463	55,12
367,668	124,76
367,873	163,67
368,078	94,04
368,284	65,36
368,489	65,36
368,694	141,14
368,899	159,57
369,104	141,14
369,309	139,09
369,515	59,22
369,72	149,33
369,925	32,6
370,13	89,94
370,335	65,36
370,54	83,8
370,745	145,24
370,95	67,41
371,155	139,09
371,36	143,19
371,565	163,67
371,77	141,14
371,975	-6,31
372,18	102,23
372,385	173,91
372,59	106,32
372,795	91,99
373	118,61
373,205	141,14
373,41	91,99
373,615	89,94
373,82	-0,17
374,025	91,99
374,23	77,65
374,435	85,84
374,64	112,47
374,845	165,71
375,05	42,84
375,254	122,71
375,459	81,75
375,664	63,32
375,869	77,65
376,074	30,55
376,279	106,32
376,483	75,6
376,688	94,04
376,893	188,24
377,098	20,31
377,303	112,47
377,507	165,71
377,712	114,52
377,917	155,47
378,122	149,33
378,326	132,95
378,531	69,46
378,736	83,8
378,94	124,76
379,145	151,38
379,35	147,28
379,554	108,37
379,759	81,75
379,964	116,56
380,168	98,13
380,373	108,37
380,578	149,33
380,782	190,29
380,987	161,62
381,191	130,9
381,396	153,43
381,601	149,33
381,805	149,33
382,01	214,87
382,214	175,95
382,419	108,37
382,623	71,51
382,828	108,37
383,032	46,93
383,237	34,64
383,441	55,12
383,646	122,71
383,85	-22,7
384,055	100,18
384,259	26,45
384,464	10,07
384,668	34,64
384,872	61,27
385,077	55,12
385,281	75,6
385,486	22,36
385,69	38,74
385,894	118,61
386,099	173,91
386,303	22,36
386,507	96,08
386,712	69,46
386,916	-16,55
387,12	67,41
387,325	67,41
387,529	24,4
387,733	126,8
387,937	67,41
388,142	65,36
388,346	46,93
388,55	87,89
388,754	42,84
388,959	42,84
389,163	85,84
389,367	44,88
389,571	116,56
389,775	155,47
389,98	161,62
390,184	83,8
390,388	32,6
390,592	85,84
390,796	-47,27
391	130,9
391,204	61,27
391,409	12,12
391,613	106,32
391,817	24,4
392,021	65,36
392,225	73,56
392,429	22,36
392,633	-6,31
392,837	44,88
393,041	28,5
393,245	8,02
393,449	42,84
393,653	48,98
393,857	53,08
394,061	91,99
394,265	24,4
394,469	48,98
394,673	26,45
394,877	1,88
395,081	94,04
395,285	91,99
395,489	34,64
395,693	51,03
395,896	-4,27
396,1	124,76
396,304	69,46
396,508	38,74
396,712	116,56
396,916	26,45
397,12	10,07
397,323	139,09
397,527	51,03
397,731	151,38
397,935	77,65
398,139	65,36
398,342	28,5
398,546	48,98
398,75	-4,27
398,954	22,36
399,157	55,12
399,361	104,28
399,565	-24,75
399,769	75,6
399,972	73,56
400,176	48,98
400,38	59,22
400,583	18,26
400,787	34,64
400,991	83,8
401,194	77,65
401,398	18,26
401,601	42,84
401,805	75,6
402,009	79,7
402,212	81,75
402,416	206,67
402,619	112,47
402,823	366,42
403,026	630,6
403,23	1197,89
403,433	2662,19
403,637	4859,66
403,841	7720,67
404,044	9553,6
404,247	10430,13
404,451	9961,15
404,654	7718,62
404,858	4491,02
405,061	2287,41
405,265	1212,23
405,468	823,11
405,672	350,03
405,875	286,54
406,078	167,76
406,282	210,77
406,485	204,63
406,689	454,48
406,892	757,58
407,095	927,56
407,299	991,05
407,502	1058,63
407,705	878,41
407,909	636,75
408,112	245,59
408,315	235,35
408,518	231,25
408,722	91,99
408,925	108,37
409,128	81,75
409,331	18,26
409,535	96,08
409,738	122,71
409,941	264,02
410,144	124,76
410,347	233,3
410,551	165,71
410,754	161,62
410,957	196,43
411,16	61,27
411,363	141,14
411,566	116,56
411,769	128,85
411,973	112,47
412,176	149,33
412,379	110,42
412,582	163,67
412,785	149,33
412,988	91,99
413,191	155,47
413,394	132,95
413,597	157,52
413,8	116,56
414,003	233,3
414,206	116,56
414,409	204,63
414,612	167,76
414,815	206,67
415,018	77,65
415,221	149,33
415,424	214,87
415,627	231,25
415,83	124,76
416,033	212,82
416,235	210,77
416,438	198,48
416,641	198,48
416,844	161,62
417,047	100,18
417,25	198,48
417,453	169,81
417,655	165,71
417,858	223,06
418,061	96,08
418,264	149,33
418,467	116,56
418,669	200,53
418,872	223,06
419,075	116,56
419,278	196,43
419,48	149,33
419,683	137,04
419,886	143,19
420,089	200,53
420,291	227,15
420,494	157,52
420,697	137,04
420,899	257,87
421,102	171,86
421,305	147,28
421,507	186,19
421,71	155,47
421,912	247,63
422,115	120,66
422,318	184,15
422,52	255,83
422,723	190,29
422,925	198,48
423,128	190,29
423,33	104,28
423,533	198,48
423,735	206,67
423,938	214,87
424,14	178
424,343	261,97
424,545	245,59
424,748	221,01
424,95	202,58
425,153	204,63
425,355	96,08
425,558	307,02
425,76	264,02
425,962	255,83
426,165	210,77
426,367	212,82
426,57	278,35
426,772	253,78
426,974	241,49
427,177	106,32
427,379	186,19
427,581	345,94
427,784	184,15
427,986	163,67
428,188	272,21
428,39	278,35
428,593	210,77
428,795	313,17
428,997	313,17
429,2	261,97
429,402	251,73
429,604	188,24
429,806	237,39
430,008	345,94
430,211	276,31
430,413	208,72
430,615	231,25
430,817	288,59
431,019	239,44
431,221	317,26
431,423	237,39
431,626	300,88
431,828	323,41
432,03	282,45
432,232	321,36
432,434	407,38
432,636	321,36
432,838	345,94
433,04	442,19
433,242	554,83
433,444	575,31
433,646	870,22
433,848	1220,42
434,05	2129,72
434,252	3641,12
434,454	7349,99
434,656	14696,05
434,858	22984,18
435,06	27047,35
435,262	28741,02
435,464	29992,33
435,666	24595,93
435,868	15099,5
436,07	9668,29
436,271	5594,88
436,473	3221,28
436,675	2254,64
436,877	1521,47
437,079	1032,01
437,281	753,48
437,482	550,73
437,684	528,21
437,886	431,95
438,088	431,95
438,29	417,61
438,491	364,37
438,693	380,75
438,895	450,38
439,097	395,09
439,298	354,13
439,5	335,7
439,702	307,02
439,903	395,09
440,105	388,94
440,307	444,24
440,508	409,42
440,71	329,55
440,912	448,33
441,113	390,99
441,315	380,75
441,517	405,33
441,718	395,09
441,92	386,9
442,121	380,75
442,323	325,46
442,524	313,17
442,726	376,66
442,928	345,94
443,129	311,12
443,331	309,07
443,532	368,46
443,734	294,74
443,935	485,2
444,136	290,64
444,338	403,28
444,539	395,09
444,741	407,38
444,942	354,13
445,144	390,99
445,345	403,28
445,546	325,46
445,748	304,98
445,949	366,42
446,151	331,6
446,352	362,32
446,553	493,39
446,755	347,98
446,956	436,05
447,157	337,74
447,359	309,07
447,56	341,84
447,761	386,9
447,962	489,29
448,164	401,23
448,365	307,02
448,566	366,42
448,767	274,26
448,969	436,05
449,17	393,04
449,371	323,41
449,572	374,61
449,773	395,09
449,974	376,66
450,176	352,08
450,377	395,09
450,578	378,7
450,779	339,79
450,98	268,11
451,181	395,09
451,382	360,27
451,583	354,13
451,784	440,14
451,986	409,42
452,187	419,66
452,388	319,31
452,589	358,22
452,79	333,65
452,991	417,61
453,192	390,99
453,393	313,17
453,594	405,33
453,795	302,93
453,995	358,22
454,196	405,33
454,397	345,94
454,598	352,08
454,799	329,55
455	454,48
455,201	352,08
455,402	505,68
455,603	321,36
455,804	309,07
456,004	321,36
456,205	333,65
456,406	417,61
456,607	331,6
456,808	399,18
457,008	309,07
457,209	354,13
457,41	434
457,611	411,47
457,811	458,57
458,012	401,23
458,213	378,7
458,414	356,18
458,614	401,23
458,815	313,17
459,016	487,25
459,216	354,13
459,417	370,51
459,618	329,55
459,818	309,07
460,019	278,35
460,22	321,36
460,42	378,7
460,621	419,66
460,821	366,42
461,022	419,66
461,223	368,46
461,423	290,64
461,624	364,37
461,824	390,99
462,025	298,83
462,225	315,22
462,426	393,04
462,626	309,07
462,827	337,74
463,027	429,9
463,228	413,52
463,428	378,7
463,628	380,75
463,829	452,43
464,029	335,7
464,23	390,99
464,43	370,51
464,63	333,65
464,831	335,7
465,031	372,56
465,231	280,4
465,432	366,42
465,632	522,06
465,832	317,26
466,033	368,46
466,233	429,9
466,433	472,91
466,634	513,87
466,834	554,83
467,034	356,18
467,234	393,04
467,435	304,98
467,635	366,42
467,835	286,54
468,035	360,27
468,235	382,8
468,436	358,22
468,636	350,03
468,836	294,74
469,036	448,33
469,236	403,28
469,436	317,26
469,636	522,06
469,836	356,18
470,037	403,28
470,237	343,89
470,437	407,38
470,637	409,42
470,837	423,76
471,037	354,13
471,237	454,48
471,437	427,85
471,637	419,66
471,837	407,38
472,037	378,7
472,237	386,9
472,437	403,28
472,637	495,44
472,837	489,29
473,036	370,51
473,236	520,01
473,436	460,62
473,636	397,14
473,836	403,28
474,036	337,74
474,236	333,65
474,436	407,38
474,635	466,77
474,835	436,05
475,035	448,33
475,235	491,34
475,435	376,66
475,634	452,43
475,834	421,71
476,034	413,52
476,234	378,7
476,433	425,81
476,633	575,31
476,833	413,52
477,033	372,56
477,232	415,57
477,432	472,91
477,632	560,97
477,831	530,25
478,031	548,68
478,231	591,69
478,43	616,27
478,63	591,69
478,829	474,96
479,029	630,6
479,229	786,25
479,428	597,84
479,628	804,68
479,827	868,17
480,027	794,44
480,226	1138,5
480,426	1072,96
480,625	1152,84
480,825	1220,42
481,024	1378,11
481,224	1480,51
481,423	1593,15
481,623	1902,39
481,822	1933,11
482,021	2285,36
482,221	2377,52
482,42	2729,77
482,62	2891,56
482,819	3129,13
483,018	3409,7
483,218	3512,1
483,417	3907,35
483,616	4200,21
483,816	4556,56
484,015	5039,88
484,214	5205,77
484,414	5584,64
484,613	5887,74
484,812	6143,74
485,011	6473,46
485,211	6815,47
485,41	7165,67
485,609	7425,76
485,808	7448,29
486,008	7751,39
486,207	7503,59
486,406	7522,02
486,605	7239,4
486,804	7436
487,003	7544,55
487,203	7300,84
487,402	7163,62
487,601	7104,23
487,8	6838
487,999	6717,17
488,198	6629,1
488,397	6162,17
488,596	6166,26
488,795	5940,99
488,994	5701,37
489,193	5584,64
489,392	5441,28
489,591	5363,46
489,79	5250,82
489,989	5302,02
490,188	5234,44
490,387	5371,65
490,586	5052,17
490,785	5211,91
490,984	5017,35
491,183	5039,88
491,382	4837,13
491,581	4867,85
491,779	4632,33
491,978	4525,84
492,177	4456,21
492,376	4355,86
492,575	4175,64
492,774	4013,85
492,972	3958,55
493,171	3893,02
493,37	3847,96
493,569	3972,89
493,768	3790,62
493,966	3655,45
494,165	3557,15
494,364	3557,15
494,563	3430,18
494,761	3358,5
494,96	3241,76
495,159	3172,13
495,357	3004,2
495,556	2903,85
495,755	2932,52
495,953	2864,94
496,152	2840,36
496,35	2672,43
496,549	2705,2
496,748	2570,03
496,946	2434,86
497,145	2449,2
497,343	2344,75
497,542	2307,89
497,74	2213,68
497,939	2107,19
498,137	2015,03
498,336	1974,07
498,534	1851,19
498,733	1826,62
498,931	1828,67
499,13	1734,46
499,328	1632,06
499,527	1711,93
499,725	1460,03
499,924	1447,74
500,122	1515,33
500,32	1443,65
500,519	1402,69
500,717	1255,23
500,915	1122,12
501,114	1304,39
501,312	1169,22
501,51	1089,35
501,709	1048,39
501,907	1023,81
502,105	923,46
502,304	952,13
502,502	894,79
502,7	923,46
502,898	870,22
503,097	829,26
503,295	778,06
503,493	728,91
503,691	808,78
503,889	663,37
504,088	698,19
504,286	739,15
504,484	720,71
504,682	694,09
504,88	778,06
505,078	747,34
505,276	560,97
505,474	696,14
505,672	616,27
505,871	722,76
506,069	646,99
506,267	520,01
506,465	636,75
506,663	534,35
506,861	499,53
507,059	581,45
507,257	624,46
507,455	477,01
507,653	550,73
507,851	530,25
508,049	499,53
508,246	542,54
508,444	651,08
508,642	542,54
508,84	589,64
509,038	583,5
509,236	630,6
509,434	425,81
509,632	612,17
509,829	546,64
510,027	507,73
510,225	567,12
510,423	571,21
510,621	395,09
510,818	554,83
511,016	509,77
511,214	587,6
511,412	591,69
511,609	481,1
511,807	567,12
512,005	509,77
512,203	554,83
512,4	495,44
512,598	517,97
512,796	520,01
512,993	575,31
513,191	468,81
513,389	520,01
513,586	507,73
513,784	505,68
513,981	614,22
514,179	558,92
514,377	425,81
514,574	534,35
514,772	485,2
514,969	509,77
515,167	489,29
515,364	505,68
515,562	425,81
515,759	579,4
515,957	567,12
516,154	495,44
516,352	571,21
516,549	495,44
516,746	429,9
516,944	544,59
517,141	390,99
517,339	417,61
517,536	558,92
517,733	446,29
517,931	446,29
518,128	464,72
518,325	458,57
518,523	454,48
518,72	448,33
518,917	538,45
519,115	421,71
519,312	515,92
519,509	413,52
519,707	456,53
519,904	382,8
520,101	393,04
520,298	460,62
520,495	393,04
520,693	343,89
520,89	421,71
521,087	333,65
521,284	376,66
521,481	362,32
521,678	442,19
521,876	477,01
522,073	431,95
522,27	458,57
522,467	329,55
522,664	352,08
522,861	358,22
523,058	462,67
523,255	321,36
523,452	427,85
523,649	276,31
523,846	386,9
524,043	345,94
524,24	456,53
524,437	370,51
524,634	388,94
524,831	282,45
525,028	378,7
525,225	352,08
525,422	356,18
525,619	403,28
525,816	378,7
526,013	520,01
526,209	479,05
526,406	417,61
526,603	393,04
526,8	450,38
526,997	390,99
527,194	462,67
527,39	427,85
527,587	440,14
527,784	454,48
527,981	382,8
528,177	370,51
528,374	464,72
528,571	530,25
528,768	347,98
528,964	419,66
529,161	440,14
529,358	530,25
529,554	403,28
529,751	399,18
529,948	479,05
530,144	532,3
530,341	477,01
530,537	567,12
530,734	538,45
530,931	620,36
531,127	722,76
531,324	800,59
531,52	968,52
531,717	1079,11
531,913	1283,91
532,11	1451,84
532,306	1603,39
532,503	1740,6
532,699	1922,87
532,896	1873,72
533,092	1695,55
533,289	1484,61
533,485	2068,28
533,682	1425,22
533,878	1453,89
534,074	1525,57
534,271	1513,28
534,467	1570,62
534,664	1613,63
534,86	1668,92
535,056	1820,47
535,253	2150,2
535,449	2277,17
535,645	2549,55
535,841	2832,17
536,038	3331,87
536,234	3829,53
536,43	4261,65
536,626	4859,66
536,823	5089,03
537,019	5613,31
537,215	5924,6
537,411	6360,82
537,607	6586,1
537,804	6913,77
538	7390,95
538,196	8339,16
538,392	8931,02
538,588	10116,79
538,784	11603,62
538,98	12979,86
539,176	14929,52
539,373	17512,01
539,569	20020,77
539,765	23258,61
539,961	27200,95
540,157	31446,39
540,353	34925,89
540,549	39011,59
540,745	41047,27
540,941	42210,51
541,137	41585,88
541,333	40723,69
541,528	39529,72
541,724	37092,64
541,92	35583,29
542,116	33922,38
542,312	32720,23
542,508	32673,12
542,704	32273,77
542,9	31991,15
543,096	32046,44
543,291	32374,12
543,487	32431,46
543,683	33039,71
543,879	33738,07
544,075	35063,1
544,27	39171,33
544,466	46525,58
544,662	53386,28
544,858	59839,43
545,053	62516,12
545,249	63556,49
545,445	64056,2
545,64	62948,24
545,836	56503,29
546,032	47373,44
546,227	41506,01
546,423	37346,59
546,619	32531,81
546,814	30051,72
547,01	27084,22
547,205	25695,69
547,401	23500,27
547,597	22621,69
547,792	21057,04
547,988	20008,48
548,183	18642,49
548,379	17835,59
548,574	16465,5
548,77	15679,08
548,965	14575,22
549,161	13627,01
549,356	13010,57
549,552	12553,88
549,747	11755,17
549,942	11277,99
550,138	10471,09
550,333	9762,5
550,529	9129,67
550,724	8623,83
550,919	8038,11
551,115	7837,41
551,31	7300,84
551,505	6905,58
551,701	6661,87
551,896	6381,3
552,091	5945,08
552,287	5676,8
552,482	5271,3
552,677	5089,03
552,872	4732,69
553,067	4386,58
553,263	4222,74
553,458	3907,35
553,653	3651,36
553,848	3405,6
554,043	3184,42
554,239	2850,6
554,434	2746,16
554,629	2672,43
554,824	2434,86
555,019	2246,45
555,214	2142
555,409	2000,69
555,604	1877,82
555,799	1746,75
555,994	1785,66
556,189	1654,59
556,384	1705,79
556,579	1560,38
556,774	1490,75
556,969	1492,8
557,164	1343,3
557,359	1326,91
557,554	1271,62
557,749	1109,83
557,944	1034,05
558,139	1027,91
558,334	1072,96
558,529	1144,64
558,724	974,66
558,918	1046,34
559,113	1001,29
559,308	974,66
559,503	913,22
559,698	911,18
559,893	816,97
560,087	829,26
560,282	804,68
560,477	868,17
560,672	771,91
560,866	816,97
561,061	868,17
561,256	816,97
561,45	810,82
561,645	872,26
561,84	812,87
562,034	737,1
562,229	755,53
562,424	710,47
562,618	679,75
562,813	728,91
563,008	606,03
563,202	669,52
563,397	595,79
563,591	730,95
563,786	591,69
563,98	632,65
564,175	589,64
564,369	636,75
564,564	741,19
564,758	704,33
564,953	520,01
565,147	546,64
565,342	560,97
565,536	610,12
565,731	587,6
565,925	583,5
566,119	558,92
566,314	603,98
566,508	571,21
566,703	616,27
566,897	526,16
567,091	554,83
567,286	491,34
567,48	583,5
567,674	614,22
567,868	520,01
568,063	575,31
568,257	579,4
568,451	499,53
568,646	546,64
568,84	466,77
569,034	415,57
569,228	493,39
569,422	458,57
569,616	495,44
569,811	313,17
570,005	474,96
570,199	333,65
570,393	429,9
570,587	304,98
570,781	272,21
570,975	395,09
571,169	343,89
571,364	370,51
571,558	317,26
571,752	345,94
571,946	358,22
572,14	288,59
572,334	362,32
572,528	335,7
572,722	421,71
572,916	321,36
573,109	456,53
573,303	423,76
573,497	329,55
573,691	491,34
573,885	489,29
574,079	444,24
574,273	487,25
574,467	593,74
574,661	700,23
574,854	1101,64
575,048	1689,4
575,242	3012,39
575,436	4439,83
575,63	5609,22
575,823	7306,98
576,017	8120,03
576,211	8038,11
576,405	7091,95
576,598	5687,04
576,792	4931,34
576,986	4622,09
577,18	4671,25
577,373	5353,22
577,567	6194,93
577,761	6680,3
577,954	8034,01
578,148	8634,07
578,341	8914,64
578,535	7974,62
578,729	7577,31
578,922	7046,89
579,116	6928,11
579,309	6948,59
579,503	6778,61
579,696	6452,98
579,89	5914,36
580,083	5390,08
580,277	5340,93
580,47	5218,05
580,664	5342,98
580,857	5394,18
581,051	5805,82
581,244	6051,58
581,437	6426,36
581,631	6514,42
581,824	6602,48
582,018	6866,67
582,211	6878,96
582,404	7055,08
582,598	7225,06
582,791	7167,72
582,984	7067,37
583,178	7393
583,371	7096,04
583,564	6913,77
583,757	7046,89
583,951	6928,11
584,144	6797,04
584,337	6504,18
584,53	6422,26
584,723	6262,52
584,917	6465,27
585,11	6561,52
585,303	7292,65
585,496	7712,48
585,689	8974,03
585,882	9955,01
586,075	11368,1
586,268	12052,13
586,462	12627,6
586,655	12187,29
586,848	11345,58
587,041	10319,54
587,234	9043,66
587,427	8318,68
587,62	7091,95
587,813	6401,78
588,006	5975,8
588,199	5228,29
588,392	5125,9
588,585	4830,99
588,777	4491,02
588,97	4402,96
589,163	4472,59
589,356	4396,82
589,549	4380,43
589,742	4448,02
589,935	4636,43
590,128	4732,69
590,32	5046,02
590,513	5269,25
590,706	5635,84
590,899	5932,79
591,092	6559,47
591,284	7188,2
591,477	8074,97
591,67	9055,95
591,863	9660,1
592,055	10444,47
592,248	10544,82
592,441	10452,66
592,633	9868,99
592,826	9017,04
593,019	8466,13
593,211	7333,61
593,404	6618,86
593,596	6067,96
593,789	5424,9
593,982	4974,35
594,174	4540,18
594,367	4194,07
594,559	3950,36
594,752	3729,18
594,944	3663,65
595,137	3542,82
595,329	3548,96
595,522	3522,34
595,714	3366,69
595,907	3329,83
596,099	3307,3
596,292	3348,26
596,484	3546,91
596,676	3444,51
596,869	3690,27
597,061	4003,61
597,253	4329,24
597,446	4605,71
597,638	5134,09
597,83	5598,98
598,023	5971,71
598,215	6020,86
598,407	6436,6
598,6	6457,07
598,792	6467,31
598,984	6258,42
599,176	6084,34
599,369	5832,44
599,561	5406,47
599,753	4853,52
599,945	4628,24
600,137	4306,71
600,329	3964,7
600,522	3649,31
600,714	3268,39
600,906	2985,77
601,098	2879,27
601,29	2520,88
601,482	2502,45
601,674	2389,81
601,866	2375,47
602,058	2340,66
602,25	2197,3
602,442	2129,72
602,634	2246,45
602,826	2228,02
603,018	2381,62
603,21	2383,66
603,402	2414,38
603,594	2348,85
603,786	2586,41
603,978	2654
604,17	2590,51
604,362	2735,92
604,554	2586,41
604,745	2764,59
604,937	2871,08
605,129	2967,34
605,321	3082,02
605,513	3057,45
605,704	3323,68
605,896	3481,38
606,088	3749,66
606,28	3782,43
606,471	4269,84
606,663	4409,11
606,855	4839,18
607,047	5353,22
607,238	5807,87
607,43	6309,62
607,622	7177,96
607,813	8175,32
608,005	9146,06
608,197	10438,33
608,388	12437,14
608,58	14481,02
608,771	18028,1
608,963	22435,33
609,154	29228,44
609,346	37840,15
609,537	49368,16
609,729	59636,68
609,921	63019,92
610,112	63107,99
610,303	64396,16
610,495	64396,16
610,686	64396,16
610,878	64396,16
611,069	64396,16
611,261	64396,16
611,452	64396,16
611,643	64396,16
611,835	64396,16
612,026	64396,16
612,217	64347,01
612,409	49099,88
612,6	35052,86
612,791	31948,14
612,983	30580,1
613,174	29722
613,365	28306,85
613,557	26836,41
613,748	25548,24
613,939	23598,57
614,13	22126,08
614,321	20217,38
614,513	18722,36
614,704	16688,73
614,895	15412,84
615,086	13504,14
615,277	12828,31
615,468	11273,9
615,659	10229,43
615,851	9408,2
616,042	8609,49
616,233	7933,66
616,424	7366,37
616,615	7036,65
616,806	6428,4
616,997	5918,46
617,188	5756,67
617,379	5650,18
617,57	5207,81
617,761	5082,89
617,952	4787,98
618,143	4658,96
618,334	4812,56
618,524	4546,32
618,715	4732,69
618,906	4812,56
619,097	4652,81
619,288	4753,16
619,479	5046,02
619,67	5121,8
619,86	5027,59
620,051	5052,17
620,242	5201,67
620,433	4990,73
620,624	5281,54
620,814	5066,5
621,005	5259,01
621,196	5185,29
621,386	5375,75
621,577	5510,91
621,768	5684,99
621,958	5758,72
622,149	5834,49
622,34	6014,71
622,53	6125,3
622,721	6061,82
622,912	6348,53
623,102	6326
623,293	6571,76
623,483	6541,04
623,674	6629,1
623,864	6504,18
624,055	6741,74
624,245	6790,89
624,436	6733,55
624,626	6815,47
624,817	6776,56
625,007	7014,12
625,198	6903,53
625,388	6803,18
625,579	6905,58
625,769	6991,59
625,959	6940,4
626,15	6747,89
626,34	6819,57
626,531	6819,57
626,721	6651,63
626,911	6532,85
627,101	6606,58
627,292	6467,31
627,482	6360,82
627,672	6479,6
627,863	6336,24
628,053	6700,78
628,243	6708,97
628,433	6917,87
628,623	7278,31
628,814	7798,49
629,004	8888,01
629,194	9709,25
629,384	10434,23
629,574	11630,24
629,764	12379,8
629,955	12756,63
630,145	12760,72
630,335	12017,31
630,525	11159,21
630,715	9952,96
630,905	8947,4
631,095	7634,66
631,285	6661,87
631,475	5760,77
631,665	5279,49
631,855	4384,53
632,045	3727,13
632,235	3223,33
632,425	2946,86
632,615	2570,03
632,805	2320,18
632,994	2058,04
633,184	2074,42
633,374	2029,37
633,564	1818,43
633,754	1634,11
633,944	1605,44
634,133	1572,67
634,323	1525,57
634,513	1412,93
634,703	1466,17
634,893	1324,87
635,082	1320,77
635,272	1199,94
635,462	1216,32
635,651	1314,63
635,841	1193,8
636,031	1079,11
636,221	1138,5
636,41	1009,48
636,6	1029,96
636,789	999,24
636,979	1042,25
637,169	976,71
637,358	1007,43
637,548	976,71
637,737	948,04
637,927	1013,57
638,116	894,79
638,306	937,8
638,495	862,02
638,685	876,36
638,874	868,17
639,064	837,45
639,253	837,45
639,443	925,51
639,632	857,93
639,822	800,59
640,011	902,98
640,2	900,94
640,39	935,75
640,579	835,4
640,768	917,32
640,958	870,22
641,147	790,35
641,336	810,82
641,526	767,82
641,715	821,06
641,904	964,42
642,093	872,26
642,283	954,18
642,472	915,27
642,661	974,66
642,85	902,98
643,039	952,13
643,228	999,24
643,418	902,98
643,607	907,08
643,796	966,47
643,985	982,85
644,174	980,81
644,363	970,57
644,552	829,26
644,741	837,45
644,93	835,4
645,119	853,83
645,308	821,06
645,497	896,84
645,686	862,02
645,875	870,22
646,064	874,31
646,253	855,88
646,442	902,98
646,631	878,41
646,82	927,56
647,009	872,26
647,198	929,61
647,387	829,26
647,575	919,37
647,764	1464,13
647,953	1197,89
648,142	1298,24
648,331	1408,83
648,519	1742,65
648,708	2156,34
648,897	2457,39
649,086	2778,92
649,274	3219,24
649,463	3153,7
649,652	3194,66
649,84	3092,26
650,029	3000,1
650,218	2619,18
650,406	2520,88
650,595	2230,07
650,784	2117,43
650,972	1984,31
651,161	1775,42
651,349	1791,8
651,538	1797,95
651,726	1845,05
651,915	1716,03
652,104	1720,12
652,292	1709,88
652,481	1658,68
652,669	1568,57
652,857	1402,69
653,046	1300,29
653,234	1238,85
653,423	1251,14
653,611	1181,51
653,8	1103,68
653,988	1075,01
654,176	974,66
654,365	892,74
654,553	1099,59
654,741	952,13
654,93	786,25
655,118	911,18
655,306	882,5
655,494	868,17
655,683	915,27
655,871	1001,29
656,059	1072,96
656,247	1048,39
656,436	984,9
656,624	1091,4
656,812	1040,2
657	1050,44
657,188	1056,58
657,376	941,89
657,564	952,13
657,753	857,93
657,941	806,73
658,129	802,63
658,317	710,47
658,505	624,46
658,693	671,56
658,881	569,16
659,069	642,89
659,257	563,02
659,445	567,12
659,633	661,32
659,821	655,18
660,009	790,35
660,197	796,49
660,384	964,42
660,572	1288
660,76	1353,54
660,948	1595,2
661,136	1713,98
661,324	1886,01
661,512	1920,82
661,699	1871,67
661,887	1711,93
662,075	1722,17
662,263	1488,7
662,451	1462,08
662,638	1318,72
662,826	1161,03
663,014	1222,47
663,201	1023,81
663,389	993,09
663,577	794,44
663,764	886,6
663,952	722,76
664,14	681,8
664,327	679,75
664,515	687,95
664,702	673,61
664,89	589,64
665,078	599,88
665,265	591,69
665,453	640,84
665,64	581,45
665,828	673,61
666,015	565,07
666,203	687,95
666,39	679,75
666,578	618,32
666,765	565,07
666,952	696,14
667,14	612,17
667,327	567,12
667,515	597,84
667,702	579,4
667,889	507,73
668,077	558,92
668,264	558,92
668,451	587,6
668,638	509,77
668,826	540,49
669,013	556,88
669,2	542,54
669,388	524,11
669,575	536,4
669,762	497,49
669,949	544,59
670,136	1675,07
670,323	540,49
670,511	483,15
670,698	503,63
670,885	501,58
671,072	517,97
671,259	505,68
671,446	501,58
671,633	507,73
671,82	460,62
672,007	417,61
672,194	452,43
672,381	450,38
672,568	497,49
672,755	378,7
672,942	399,18
673,129	565,07
673,316	526,16
673,503	407,38
673,69	364,37
673,877	425,81
674,064	536,4
674,251	407,38
674,437	397,14
674,624	423,76
674,811	384,85
674,998	415,57
675,185	362,32
675,372	442,19
675,558	409,42
675,745	380,75
675,932	407,38
676,119	347,98
676,305	374,61
676,492	419,66
676,679	407,38
676,865	368,46
677,052	329,55
677,239	427,85
677,425	384,85
677,612	499,53
677,798	505,68
677,985	491,34
678,172	466,77
678,358	513,87
678,545	427,85
678,731	384,85
678,918	386,9
679,104	530,25
679,291	747,34
679,477	427,85
679,664	427,85
679,85	442,19
680,036	524,11
680,223	444,24
680,409	446,29
680,596	499,53
680,782	489,29
680,968	507,73
681,155	434
681,341	513,87
681,527	472,91
681,714	413,52
681,9	440,14
682,086	458,57
682,272	360,27
682,459	390,99
682,645	534,35
682,831	384,85
683,017	530,25
683,204	446,29
683,39	477,01
683,576	501,58
683,762	470,86
683,948	458,57
684,134	456,53
684,32	477,01
684,506	505,68
684,693	649,04
684,879	550,73
685,065	778,06
685,251	835,4
685,437	952,13
685,623	1105,73
685,809	1265,47
685,995	1480,51
686,181	1634,11
686,366	1625,92
686,552	1630,01
686,738	1451,84
686,924	1621,82
687,11	1427,26
687,296	1402,69
687,482	1204,03
687,668	1058,63
687,853	984,9
688,039	829,26
688,225	745,29
688,411	773,96
688,597	663,37
688,782	601,93
688,968	517,97
689,154	517,97
689,34	577,36
689,525	567,12
689,711	477,01
689,897	417,61
690,082	329,55
690,268	384,85
690,454	259,92
690,639	309,07
690,825	390,99
691,01	335,7
691,196	333,65
691,381	390,99
691,567	526,16
691,753	685,9
691,938	804,68
692,124	954,18
692,309	1095,49
692,494	1087,3
692,68	1056,58
692,865	1021,77
693,051	982,85
693,236	868,17
693,422	800,59
693,607	593,74
693,792	528,21
693,978	411,47
694,163	481,1
694,348	423,76
694,534	390,99
694,719	456,53
694,904	405,33
695,089	427,85
695,275	339,79
695,46	337,74
695,645	339,79
695,83	331,6
696,016	325,46
696,201	278,35
696,386	227,15
696,571	237,39
696,756	210,77
696,941	247,63
697,126	149,33
697,311	161,62
697,497	171,86
697,682	130,9
697,867	157,52
698,052	126,8
698,237	182,1
698,422	65,36
698,607	243,54
698,792	130,9
698,977	137,04
699,162	241,49
699,347	233,3
699,531	173,91
699,716	212,82
699,901	165,71
700,086	266,07
700,271	216,91
700,456	276,31
700,641	210,77
700,825	218,96
701,01	280,4
701,195	268,11
701,38	175,95
701,565	300,88
701,749	223,06
701,934	337,74
702,119	466,77
702,303	407,38
702,488	386,9
702,673	540,49
702,857	526,16
703,042	544,59
703,227	599,88
703,411	696,14
703,596	778,06
703,78	950,09
703,965	872,26
704,15	1097,54
704,334	1216,32
704,519	1507,13
704,703	1761,08
704,888	2115,38
705,072	2471,73
705,257	2547,5
705,441	2963,24
705,625	3217,19
705,81	3264,29
705,994	3155,75
706,179	3110,69
706,363	3030,82
706,547	3057,45
706,732	2823,98
706,916	3057,45
707,1	3073,83
707,285	3452,7
707,469	3589,92
707,653	3811,1
707,837	3899,16
708,022	3759,9
708,206	3403,55
708,39	2897,71
708,574	2561,84
708,759	2320,18
708,943	2015,03
709,127	1820,47
709,311	1722,17
709,495	1445,7
709,679	1365,82
709,863	1505,09
710,047	1638,2
710,231	1992,5
710,415	2230,07
710,6	2602,8
710,784	2789,16
710,968	3018,54
711,152	2961,19
711,336	2948,9
711,519	2817,83
711,703	2549,55
711,887	2168,63
712,071	1785,66
712,255	1566,53
712,439	1408,83
712,623	1199,94
712,807	1025,86
712,991	878,41
713,174	646,99
713,358	532,3
713,542	446,29
713,726	337,74
713,91	358,22
714,093	362,32
714,277	284,5
714,461	241,49
714,645	229,2
714,828	114,52
715,012	122,71
715,196	81,75
715,379	227,15
715,563	167,76
715,747	118,61
715,93	40,79
716,114	65,36
716,297	135
716,481	63,32
716,664	89,94
716,848	118,61
717,031	65,36
717,215	108,37
717,398	106,32
717,582	135
717,765	83,8
717,949	18,26
718,132	67,41
718,316	40,79
718,499	126,8
718,682	149,33
718,866	157,52
719,049	124,76
719,233	110,42
719,416	91,99
719,599	122,71
719,782	106,32
719,966	26,45
720,149	38,74
720,332	89,94
720,515	8,02
720,699	75,6
720,882	87,89
721,065	67,41
721,248	130,9
721,431	96,08
721,615	34,64
721,798	100,18
721,981	14,17
722,164	24,4
722,347	83,8
722,53	153,43
722,713	40,79
722,896	26,45
723,079	57,17
723,262	8,02
723,445	214,87
723,628	-6,31
723,811	75,6
723,994	75,6
724,177	130,9
724,36	69,46
724,543	55,12
724,726	75,6
724,909	91,99
725,091	153,43
725,274	59,22
725,457	102,23
725,64	59,22
725,823	132,95
726,006	55,12
726,188	100,18
726,371	204,63
726,554	130,9
726,737	75,6
726,919	91,99
727,102	128,85
727,285	79,7
727,467	132,95
727,65	104,28
727,833	24,4
728,015	106,32
728,198	-12,46
728,38	42,84
728,563	36,69
728,746	-24,75
728,928	26,45
729,111	-24,75
729,293	38,74
729,476	116,56
729,658	110,42
729,841	30,55
730,023	198,48
730,205	42,84
730,388	42,84
730,57	69,46
730,753	32,6
730,935	59,22
731,117	165,71
731,3	10,07
731,482	73,56
731,664	18,26
731,847	159,57
732,029	59,22
732,211	46,93
732,394	-43,18
732,576	22,36
732,758	75,6
732,94	67,41
733,122	32,6
733,305	165,71
733,487	30,55
733,669	89,94
733,851	46,93
734,033	87,89
734,215	32,6
734,397	87,89
734,58	46,93
734,762	1,88
734,944	63,32
735,126	8,02
735,308	106,32
735,49	8,02
735,672	59,22
735,854	-39,08
736,036	112,47
736,218	204,63
736,399	149,33
736,581	294,74
736,763	259,92
736,945	368,46
737,127	292,69
737,309	372,56
737,491	294,74
737,672	235,35
737,854	237,39
738,036	157,52
738,218	143,19
738,4	34,64
738,581	157,52
738,763	38,74
738,945	145,24
739,127	34,64
739,308	79,7
739,49	18,26
739,672	116,56
739,853	63,32
740,035	28,5
740,216	71,51
740,398	75,6
740,58	46,93
740,761	141,14
740,943	169,81
741,124	165,71
741,306	114,52
741,487	169,81
741,669	65,36
741,85	124,76
742,032	94,04
742,213	153,43
742,394	161,62
742,576	120,66
742,757	128,85
742,939	110,42
743,12	55,12
743,301	36,69
743,483	63,32
743,664	36,69
743,845	16,21
744,027	79,7
744,208	-2,22
744,389	59,22
744,57	-47,27
744,752	96,08
744,933	122,71
745,114	16,21
745,295	79,7
745,476	57,17
745,657	-2,22
745,839	10,07
746,02	42,84
746,201	34,64
746,382	79,7
746,563	75,6
746,744	44,88
746,925	3,93
747,106	8,02
747,287	67,41
747,468	87,89
747,649	83,8
747,83	14,17
748,011	85,84
748,192	81,75
748,373	51,03
748,554	149,33
748,735	171,86
748,915	261,97
749,096	255,83
749,277	350,03
749,458	397,14
749,639	362,32
749,82	440,14
750	354,13
750,181	493,39
750,362	417,61
750,543	255,83
750,723	261,97
750,904	161,62
751,085	124,76
751,265	128,85
751,446	120,66
751,627	67,41
751,807	75,6
751,988	10,07
752,169	89,94
752,349	1,88
752,53	-10,41
752,71	10,07
752,891	48,98
753,071	40,79
753,252	-43,18
753,432	5,97
753,613	-12,46
753,793	-0,17
753,974	44,88
754,154	48,98
754,334	16,21
754,515	30,55
754,695	75,6
754,876	116,56
755,056	69,46
755,236	-0,17
755,417	-16,55
755,597	46,93
755,777	-32,94
755,957	-34,99
756,138	22,36
756,318	1,88
756,498	1,88
756,678	22,36
756,859	-10,41
757,039	-45,23
757,219	75,6
757,399	-6,31
757,579	1,88
757,759	16,21
757,939	-39,08
758,119	65,36
758,3	67,41
758,48	51,03
758,66	-39,08
758,84	-92,33
759,02	5,97
759,2	-2,22
759,38	3,93
759,56	100,18
759,74	-59,56
759,919	-55,47
760,099	40,79
760,279	96,08
760,459	-18,6
760,639	59,22
760,819	83,8
760,999	-20,65
761,178	143,19
761,358	378,7
761,538	653,13
761,718	927,56
761,898	1148,74
762,077	1320,77
762,257	1492,8
762,437	1335,1
762,616	1158,98
762,796	784,2
762,976	694,09
763,155	386,9
763,335	372,56
763,515	198,48
763,694	225,11
763,874	59,22
764,053	85,84
764,233	48,98
764,413	-16,55
764,592	22,36
764,772	143,19
764,951	-6,31
765,131	-24,75
765,31	75,6
765,489	26,45
765,669	12,12
765,848	75,6
766,028	-6,31
766,207	-18,6
766,386	42,84
766,566	-14,51
766,745	34,64
766,924	34,64
767,104	102,23
767,283	-8,36
767,462	42,84
767,642	-6,31
767,821	1,88
768	-34,99
768,179	34,64
768,358	40,79
768,538	5,97
768,717	18,26
768,896	-65,71
769,075	75,6
769,254	-0,17
769,433	48,98
769,612	53,08
769,791	-55,47
769,97	16,21
770,149	137,04
770,328	100,18
770,507	225,11
770,686	288,59
770,865	382,8
771,044	493,39
771,223	474,96
771,402	399,18
771,581	321,36
771,76	91,99
771,939	165,71
772,118	32,6
772,297	16,21
772,475	71,51
772,654	104,28
772,833	100,18
773,012	96,08
773,191	96,08
773,369	51,03
773,548	96,08
773,727	-16,55
773,906	81,75
774,084	30,55
774,263	-2,22
774,442	-2,22
774,62	-34,99
774,799	-104,62
774,977	57,17
775,156	59,22
775,335	59,22
775,513	-0,17
775,692	-22,7
775,87	171,86
776,049	8,02
776,227	38,74
776,406	51,03
776,584	40,79
776,763	-16,55
776,941	-73,9
777,119	-49,32
777,298	-71,85
777,476	42,84
777,655	-14,51
777,833	-80,04
778,011	8,02
778,19	59,22
778,368	-2,22
778,546	102,23
778,725	65,36
778,903	-8,36
779,081	-32,94
779,259	34,64
779,437	-4,27
779,616	26,45
779,794	-14,51
779,972	61,27
780,15	-39,08
780,328	3,93
780,506	34,64
780,685	28,5
780,863	-45,23
781,041	-112,81
781,219	46,93
781,397	67,41
781,575	55,12
781,753	-57,51
781,931	8,02
782,109	-18,6
782,287	-63,66
782,465	-2,22
782,643	-22,7
782,82	24,4
782,998	83,8
783,176	-22,7
783,354	-45,23
783,532	-6,31
783,71	-55,47
783,888	-28,84
784,065	-24,75
784,243	-51,37
784,421	-55,47
784,599	67,41
784,776	18,26
784,954	51,03
785,132	-32,94
785,31	-57,51
785,487	-6,31
785,665	-22,7
785,842	-22,7
786,02	91,99
786,198	-51,37
786,375	5,97
786,553	5,97
786,73	1,88
786,908	-55,47
787,085	18,26
787,263	24,4
787,44	30,55
787,618	34,64
787,795	-49,32
787,973	-143,53
788,15	24,4
788,328	59,22
788,505	26,45
788,682	77,65
788,86	-6,31
789,037	26,45
789,215	57,17
789,392	-39,08
789,569	67,41
789,746	-22,7
789,924	-16,55
790,101	42,84
790,278	79,7
790,455	-16,55
790,633	51,03
790,81	26,45
790,987	-32,94
791,164	36,69
791,341	-34,99
791,518	-63,66
791,695	59,22
791,873	55,12
792,05	34,64
792,227	1,88
792,404	44,88
792,581	116,56
792,758	175,95
792,935	214,87
793,112	268,11
793,289	241,49
793,466	350,03
793,643	212,82
793,82	108,37
793,996	59,22
794,173	100,18
794,35	10,07
794,527	132,95
794,704	67,41
794,881	-30,89
795,057	-4,27
795,234	-47,27
795,411	30,55
795,588	3,93
795,765	-47,27
795,941	-28,84
796,118	-6,31
796,295	75,6
796,471	-16,55
796,648	-26,79
796,825	12,12
797,001	-2,22
797,178	59,22
797,354	110,42
797,531	32,6
797,708	-41,13
797,884	106,32
798,061	-12,46
798,237	-16,55
798,414	59,22
798,59	106,32
798,767	128,85
798,943	143,19
799,119	247,63
799,296	216,91
799,472	270,16
799,649	237,39
799,825	274,26
800,001	253,78
800,178	229,2
800,354	231,25
800,53	171,86
800,707	-0,17
800,883	51,03
801,059	28,5
801,235	81,75
801,411	16,21
801,588	5,97
801,764	94,04
801,94	-55,47
802,116	5,97
802,292	-39,08
802,468	5,97
802,645	87,89
802,821	44,88
802,997	-51,37
803,173	14,17
803,349	-14,51
803,525	30,55
803,701	34,64
803,877	-75,95
804,053	-22,7
804,229	5,97
804,405	120,66
804,581	-6,31
804,756	38,74
804,932	-100,52
805,108	10,07
805,284	-51,37
805,46	-10,41
805,636	-22,7
805,812	-0,17
805,987	-26,79
806,163	-55,47
806,339	640,84
806,515	-71,85
806,69	-26,79
806,866	55,12
807,042	1,88
807,217	-39,08
807,393	22,36
807,569	-69,8
807,744	32,6
807,92	190,29
808,096	100,18
808,271	182,1
808,447	253,78
808,622	200,53
808,798	231,25
808,973	272,21
809,149	331,6
809,324	468,81
809,5	636,75
809,675	724,81
809,851	751,43
810,026	837,45
810,201	622,41
810,377	509,77
810,552	247,63
810,728	204,63
810,903	155,47
811,078	108,37
811,253	75,6
811,429	104,28
811,604	20,31
811,779	75,6
811,955	28,5
812,13	-24,75
812,305	57,17
812,48	-47,27
812,655	51,03
812,83	65,36
813,006	10,07
813,181	-24,75
813,356	1,88
813,531	1,88
813,706	-14,51
813,881	8,02
814,056	-16,55
814,231	65,36
814,406	-6,31
814,581	-30,89
814,756	-2,22
814,931	-22,7
815,106	32,6
815,281	36,69
815,456	10,07
815,631	-22,7
815,805	-8,36
815,98	-65,71
816,155	14,17
816,33	28,5
816,505	42,84
816,68	75,6
816,854	-63,66
817,029	-43,18
817,204	-110,76
817,379	-55,47
817,553	55,12
817,728	-39,08
817,903	-63,66
818,077	83,8
818,252	28,5
818,427	83,8
818,601	63,32
818,776	-26,79
818,95	-8,36
819,125	38,74
819,299	-30,89
819,474	-14,51
819,648	-57,51
819,823	5,97
819,997	20,31
820,172	-51,37
820,346	30,55
820,521	-18,6
820,695	-37,03
820,87	-18,6
821,044	-71,85
821,218	83,8
821,393	10,07
821,567	-71,85
821,741	26,45
821,916	16,21
822,09	22,36
822,264	100,18
822,438	-43,18
822,613	-34,99
822,787	24,4
822,961	-71,85
823,135	32,6
823,309	30,55
823,483	-30,89
823,658	-12,46
823,832	106,32
824,006	-90,28
824,18	24,4
824,354	59,22
824,528	20,31
824,702	169,81
824,876	42,84
825,05	75,6
825,224	24,4
825,398	46,93
825,572	53,08
825,746	-10,41
825,92	120,66
826,093	-41,13
826,267	46,93
826,441	77,65
826,615	63,32
826,789	69,46
826,963	67,41
827,136	-51,37
827,31	34,64
827,484	-12,46
827,658	-73,9
827,831	-26,79
828,005	-26,79
828,179	20,31
828,353	14,17
828,526	26,45
828,7	-8,36
828,873	32,6
829,047	8,02
829,221	34,64
829,394	-47,27
829,568	-30,89
829,741	-22,7
829,915	-34,99
830,088	34,64
830,262	81,75
830,435	-10,41
830,609	18,26
830,782	42,84
830,956	-24,75
831,129	-39,08
831,302	-0,17
831,476	5,97
831,649	-90,28
831,822	-6,31
831,996	32,6
832,169	32,6
832,342	-106,67
832,516	-8,36
832,689	-39,08
832,862	-6,31
833,035	96,08
833,209	104,28
833,382	71,51
833,555	14,17
833,728	-65,71
833,901	3,93
834,074	118,61
834,247	3,93
834,42	20,31
834,594	16,21
834,767	69,46
834,94	-14,51
835,113	1,88
835,286	-65,71
835,459	79,7
835,632	1,88
835,805	-28,84
835,977	-22,7
836,15	10,07
836,323	-53,42
836,496	28,5
836,669	-34,99
836,842	48,98
837,015	18,26
837,188	1,88
837,36	46,93
837,533	-6,31
837,706	-18,6
837,879	26,45
838,051	42,84
838,224	34,64
838,397	-41,13
838,569	26,45
838,742	16,21
838,915	65,36
839,087	100,18
839,26	69,46
839,433	34,64
839,605	171,86
839,778	-14,51
839,95	63,32
840,123	1,88
840,295	89,94
840,468	42,84
840,64	122,71
840,813	153,43
840,985	112,47
841,158	124,76
841,33	48,98
841,502	34,64
841,675	75,6
841,847	79,7
842,019	-22,7
842,192	5,97
842,364	-10,41
842,536	14,17
842,709	18,26
842,881	24,4
843,053	-57,51
843,225	-30,89
843,398	12,12
843,57	51,03
843,742	-32,94
843,914	69,46
844,086	73,56
844,258	-30,89
844,43	-4,27
844,602	42,84
844,775	-22,7
844,947	-6,31
845,119	-39,08
845,291	44,88
845,463	48,98
845,635	-26,79
845,807	14,17
845,979	-2,22
846,15	-14,51
846,322	-30,89
846,494	-110,76
846,666	-43,18
846,838	108,37
847,01	1,88
847,182	-24,75
847,354	-0,17
847,525	-30,89
847,697	26,45
847,869	-92,33
848,041	57,17
848,212	-12,46
848,384	-55,47
848,556	-14,51
848,727	79,7
848,899	-69,8
849,071	10,07
849,242	-34,99
849,414	3,93
849,585	26,45
849,757	-8,36
849,929	57,17
850,1	38,74
850,272	51,03
850,443	51,03
850,615	28,5
850,786	26,45
850,958	57,17
851,129	20,31
851,3	91,99
851,472	10,07
851,643	-45,23
851,815	-6,31
851,986	46,93
852,157	42,84
852,329	124,76
852,5	-26,79
852,671	124,76
852,842	-28,84
853,014	-41,13
853,185	40,79
853,356	3,93
853,527	1,88
853,698	-12,46
853,87	-34,99
854,041	87,89
854,212	-80,04
854,383	40,79
854,554	-18,6
854,725	114,52
854,896	10,07
855,067	34,64
855,238	-63,66
855,409	-26,79
855,58	-61,61
855,751	34,64
855,922	87,89
856,093	200,53
856,264	-63,66
856,435	-2,22
856,606	26,45
856,777	24,4
856,948	-63,66
857,118	-16,55
857,289	1,88
857,46	16,21
857,631	5,97
857,802	30,55
857,972	51,03
858,143	-6,31
858,314	-30,89
858,484	-47,27
858,655	-37,03
858,826	-0,17
858,996	1,88
859,167	38,74
859,338	-8,36
859,508	30,55
859,679	-8,36
859,849	-30,89
860,02	26,45
860,19	71,51
860,361	-20,65
860,531	-28,84
860,702	135
860,872	112,47
861,043	-47,27
861,213	14,17
861,384	-59,56
861,554	-59,56
861,724	-28,84
861,895	-63,66
862,065	77,65
862,235	1,88
862,406	8,02
862,576	-28,84
862,746	8,02
862,916	-2,22
863,087	30,55
863,257	14,17
863,427	-57,51
863,597	3,93
863,767	8,02
863,937	1,88
864,108	75,6
864,278	51,03
864,448	42,84
864,618	28,5
864,788	-67,75
864,958	38,74
865,128	-39,08
865,298	38,74
865,468	57,17
865,638	-4,27
865,808	-39,08
865,978	67,41
866,148	-41,13
866,318	-16,55
866,487	1,88
866,657	18,26
866,827	75,6
866,997	34,64
867,167	40,79
867,337	-14,51
867,506	20,31
867,676	-16,55
867,846	18,26
868,016	51,03
868,185	-6,31
868,355	30,55
868,525	51,03
868,694	22,36
868,864	53,08
869,034	-30,89
869,203	18,26
869,373	48,98
869,542	135
869,712	18,26
869,881	-22,7
870,051	-41,13
870,22	1,88
870,39	-34,99
870,559	32,6
870,729	-67,75
870,898	-30,89
871,068	71,51
871,237	10,07
871,406	-88,23
871,576	42,84
871,745	3,93
871,914	-47,27
872,084	-49,32
872,253	51,03
872,422	-30,89
872,591	46,93
872,761	-57,51
872,93	376,66
873,099	1,88
873,268	-18,6
873,437	-82,09
873,607	-51,37
873,776	-22,7
873,945	-16,55
874,114	14,17
874,283	-39,08
874,452	-24,75
874,621	24,4
874,79	46,93
874,959	94,04
875,128	-2,22
875,297	-57,51
875,466	87,89
875,635	3,93
875,804	10,07
875,973	-30,89
876,142	24,4
876,31	-30,89
876,479	-37,03
876,648	-0,17
876,817	-45,23
876,986	22,36
877,155	10,07
877,323	-14,51
877,492	38,74
877,661	124,76
877,829	26,45
877,998	40,79
878,167	14,17
878,335	18,26
878,504	-14,51
878,673	-16,55
878,841	-51,37
879,01	-55,47
879,178	73,56
879,347	18,26
879,515	26,45
879,684	48,98
879,852	18,26
880,021	48,98
880,189	-0,17
880,358	-0,17
880,526	96,08
880,695	-22,7
880,863	-59,56
881,031	-22,7
881,2	-0,17
881,368	-47,27
881,536	122,71
881,705	-53,42
881,873	-55,47
882,041	40,79
882,21	22,36
882,378	139,09
882,546	-51,37
882,714	-18,6
882,882	-55,47
883,05	10,07
883,219	-16,55
883,387	1,88
883,555	-30,89
883,723	-43,18
883,891	-22,7
884,059	-8,36
884,227	-0,17
884,395	10,07
884,563	63,32
884,731	48,98
884,899	34,64
885,067	30,55
885,235	-16,55
885,403	63,32
885,571	-30,89
885,739	-65,71
