Data from Fenster geschlossen_USB4F035431__0__13-32-15-592.txt Node

Date: Tue Feb 02 13:32:15 CET 2021
User: Praktikum
Spectrometer: USB4F03543
Trigger mode: 4
Integration Time (sec): 5,020000E-1
Scans to average: 1
Electric dark correction enabled: true
Nonlinearity correction enabled: false
Boxcar width: 0
XAxis mode: Wavelengths
Number of Pixels in Spectrum: 3648
>>>>>Begin Spectral Data<<<<<
179,969	-741,71
180,181	-741,71
180,394	-741,71
180,606	-723,27
180,819	-731,47
181,031	370,34
181,243	513,7
181,456	-280,91
181,668	-168,27
181,88	274,09
182,093	-41,3
182,305	-328,02
182,518	-250,19
182,73	394,92
182,942	120,49
183,155	-319,82
183,367	-285,01
183,579	294,57
183,791	351,91
184,004	-219,47
184,216	-213,33
184,428	110,25
184,641	208,55
184,853	-282,96
185,065	-280,91
185,277	313
185,49	337,57
185,702	-237,91
185,914	-182,61
186,126	267,94
186,338	317,09
186,551	-352,59
186,763	-160,08
186,975	61,1
187,187	302,76
187,399	-280,91
187,612	-209,23
187,824	128,68
188,036	218,79
188,248	-149,84
188,46	-266,58
188,672	284,33
188,885	110,25
189,097	-190,8
189,309	-244,05
189,521	175,78
189,733	302,76
189,945	-207,19
190,157	-106,84
190,369	110,25
190,581	128,68
190,794	-149,84
191,006	-239,95
191,218	128,68
191,43	200,36
191,642	-291,15
191,854	-188,75
192,066	341,67
192,278	315,05
192,49	-330,06
192,702	-117,08
192,914	257,7
193,126	276,13
193,338	-194,9
193,55	-223,57
193,762	304,81
193,974	-139,6
194,186	-282,96
194,398	-143,7
194,61	229,03
194,822	261,8
195,034	-264,53
195,246	11,95
195,457	259,75
195,669	542,37
195,881	-211,28
196,093	-225,62
196,305	251,56
196,517	-121,17
196,729	-166,23
196,941	-231,76
197,153	411,3
197,365	566,95
197,576	-264,53
197,788	-190,8
198	282,28
198,212	558,75
198,424	-272,72
198,636	-282,96
198,847	-37,2
199,059	257,7
199,271	-266,58
199,483	-147,8
199,695	255,65
199,906	251,56
200,118	-205,14
200,33	-72,02
200,542	886,43
200,753	165,54
200,965	-242
201,177	-168,27
201,389	136,87
201,6	-86,36
201,812	-166,23
202,024	-190,8
202,235	100,01
202,447	485,03
202,659	-297,3
202,871	-178,51
203,082	210,6
203,294	-2,39
203,506	-246,1
203,717	-153,94
203,929	218,79
204,141	-22,87
204,352	-182,61
204,564	-170,32
204,775	216,74
204,987	454,31
205,199	-276,82
205,41	-94,55
205,622	388,77
205,833	167,59
206,045	-141,65
206,257	-215,38
206,468	-98,64
206,68	44,71
206,891	-100,69
207,103	-170,32
207,314	-84,31
207,526	222,89
207,737	-217,43
207,949	-43,35
208,16	255,65
208,372	333,48
208,583	-223,57
208,795	-248,15
209,006	208,55
209,218	267,94
209,429	-266,58
209,641	-188,75
209,852	81,58
210,064	237,22
210,275	-219,47
210,487	-155,99
210,698	372,39
210,909	308,9
211,121	-223,57
211,332	-129,36
211,544	298,66
211,755	495,27
211,966	11,95
212,178	-295,25
212,389	560,8
212,6	95,91
212,812	69,29
213,023	-244,05
213,234	364,2
213,446	235,18
213,657	-285,01
213,868	-170,32
214,08	542,37
214,291	249,51
214,502	-174,42
214,714	-256,34
214,925	147,11
215,136	110,25
215,347	-162,13
215,559	-215,38
215,77	-0,34
215,981	444,07
216,192	-250,19
216,404	-209,23
216,615	272,04
216,826	366,25
217,037	-203,09
217,249	-127,32
217,46	456,36
217,671	192,17
217,882	-201,04
218,093	-158,03
218,304	286,37
218,516	382,63
218,727	-381,26
218,938	-209,23
219,149	603,81
219,36	226,98
219,571	-285,01
219,782	-293,2
219,993	507,55
220,205	11,95
220,416	-141,65
220,627	-244,05
220,838	380,58
221,049	833,18
221,26	-293,2
221,471	-205,14
221,682	366,25
221,893	427,68
222,104	-166,23
222,315	-250,19
222,526	11,95
222,737	153,26
222,948	-239,95
223,159	-96,6
223,37	210,6
223,581	136,87
223,792	-250,19
224,003	-108,88
224,214	73,39
224,425	165,54
224,636	-330,06
224,847	-127,32
225,058	284,33
225,269	237,22
225,48	-219,47
225,691	-338,26
225,902	251,56
226,112	151,21
226,323	-319,82
226,534	-315,73
226,745	192,17
226,956	95,91
227,167	-221,52
227,378	-141,65
227,589	30,38
227,799	511,65
228,01	-209,23
228,221	-248,15
228,432	159,4
228,643	-69,97
228,853	-198,99
229,064	-201,04
229,275	265,89
229,486	63,15
229,697	-143,7
229,907	-149,84
230,118	210,6
230,329	30,38
230,54	-233,81
230,75	-133,46
230,961	306,85
231,172	40,62
231,383	-207,19
231,593	-311,63
231,804	372,39
232,015	165,54
232,225	-264,53
232,436	-174,42
232,647	317,09
232,857	386,72
233,068	-291,15
233,279	-153,94
233,489	132,78
233,7	214,7
233,91	-190,8
234,121	-239,95
234,332	179,88
234,542	231,08
234,753	-252,24
234,964	-102,74
235,174	153,26
235,385	280,23
235,595	-176,47
235,806	-166,23
236,016	85,67
236,227	87,72
236,437	-332,11
236,648	-231,76
236,858	257,7
237,069	38,57
237,279	-162,13
237,49	-289,1
237,7	339,62
237,911	222,89
238,121	-242
238,332	-262,48
238,542	347,81
238,753	173,74
238,963	-264,53
239,174	-291,15
239,384	159,4
239,595	147,11
239,805	-233,81
240,015	-207,19
240,226	208,55
240,436	239,27
240,647	-231,76
240,857	-141,65
241,067	198,31
241,278	997,02
241,488	-291,15
241,698	-117,08
241,909	71,34
242,119	196,26
242,329	-215,38
242,54	-139,6
242,75	124,58
242,96	54,95
243,171	-82,26
243,381	-246,1
243,591	40,62
243,801	462,5
244,012	-12,63
244,222	-94,55
244,432	-153,94
244,642	112,3
244,853	-223,57
245,063	-133,46
245,273	300,71
245,483	120,49
245,694	-88,4
245,904	-98,64
246,114	272,04
246,324	48,81
246,534	-198,99
246,744	-276,82
246,955	-155,99
247,165	403,11
247,375	128,68
247,585	-102,74
247,795	124,58
248,005	304,81
248,215	-158,03
248,425	-43,35
248,636	843,42
248,846	130,73
249,056	-297,3
249,266	-285,01
249,476	257,7
249,686	245,41
249,896	-295,25
250,106	-244,05
250,316	108,2
250,526	568,99
250,736	-305,49
250,946	22,19
251,156	487,08
251,366	188,07
251,576	-166,23
251,786	-137,56
251,996	-4,44
252,206	-8,53
252,416	-237,91
252,626	-217,43
252,836	24,23
253,046	226,98
253,256	-180,56
253,466	-133,46
253,676	210,6
253,885	280,23
254,095	-211,28
254,305	-100,69
254,515	216,74
254,725	149,16
254,935	-305,49
255,145	-178,51
255,355	382,63
255,564	145,06
255,774	-264,53
255,984	75,43
256,194	161,45
256,404	192,17
256,614	-184,66
256,823	-31,06
257,033	151,21
257,243	302,76
257,453	-297,3
257,662	-254,29
257,872	413,35
258,082	188,07
258,292	-182,61
258,501	-125,27
258,711	816,8
258,921	472,74
259,131	-313,68
259,34	-221,52
259,55	136,87
259,76	38,57
259,969	-168,27
260,179	-203,09
260,389	198,31
260,598	399,01
260,808	-61,78
261,018	-125,27
261,227	415,4
261,437	54,95
261,647	-182,61
261,856	-280,91
262,066	370,34
262,275	513,7
262,485	-227,67
262,694	-123,22
262,904	292,52
263,114	392,87
263,323	-258,39
263,533	-231,76
263,742	151,21
263,952	222,89
264,161	-274,77
264,371	-166,23
264,58	155,3
264,79	75,43
264,999	-117,08
265,209	-192,85
265,418	329,38
265,628	181,93
265,837	-223,57
266,047	-252,24
266,256	511,65
266,466	116,39
266,675	-289,1
266,884	-242
267,094	200,36
267,303	429,73
267,513	-125,27
267,722	77,48
267,931	335,53
268,141	91,82
268,35	-246,1
268,559	-151,89
268,769	130,73
268,978	-141,65
269,187	-242
269,397	-221,52
269,606	-115,03
269,815	108,2
270,025	-184,66
270,234	-129,36
270,443	-53,59
270,653	71,34
270,862	-289,1
271,071	-209,23
271,28	120,49
271,49	208,55
271,699	-143,7
271,908	-92,5
272,117	192,17
272,327	143,02
272,536	-270,67
272,745	-192,85
272,954	63,15
273,163	278,18
273,372	169,64
273,582	-227,67
273,791	157,35
274	77,48
274,209	-22,87
274,418	-31,06
274,627	327,33
274,836	91,82
275,046	71,34
275,255	-143,7
275,464	77,48
275,673	-22,87
275,882	108,2
276,091	-33,11
276,3	284,33
276,509	169,64
276,718	-10,58
276,927	-72,02
277,136	224,94
277,345	165,54
277,554	97,96
277,763	79,53
277,972	200,36
278,181	212,65
278,39	-4,44
278,599	-53,59
278,808	102,06
279,017	229,03
279,226	-119,12
279,435	30,38
279,644	134,82
279,853	200,36
280,062	341,67
280,271	-92,5
280,48	69,29
280,688	65,19
280,897	61,1
281,106	24,23
281,315	-76,12
281,524	175,78
281,733	126,63
281,942	89,77
282,151	163,5
282,359	245,41
282,568	-61,78
282,777	-26,96
282,986	120,49
283,195	183,98
283,403	91,82
283,612	-53,59
283,821	87,72
284,03	-14,68
284,238	122,54
284,447	28,33
284,656	69,29
284,865	220,84
285,073	-59,73
285,282	-39,25
285,491	106,15
285,699	-100,69
285,908	9,9
286,117	-33,11
286,325	159,4
286,534	356,01
286,743	-53,59
286,951	7,85
287,16	339,62
287,369	151,21
287,577	46,76
287,786	-51,54
287,995	63,15
288,203	-67,92
288,412	95,91
288,62	-55,64
288,829	95,91
289,037	32,43
289,246	-35,16
289,455	-41,3
289,663	97,96
289,872	290,47
290,08	118,44
290,289	136,87
290,497	-10,58
290,706	257,7
290,914	-121,17
291,123	18,09
291,331	145,06
291,54	300,71
291,748	226,98
291,957	112,3
292,165	106,15
292,373	-100,69
292,582	-49,49
292,79	83,63
292,999	85,67
293,207	200,36
293,415	28,33
293,624	-53,59
293,832	153,26
294,041	177,83
294,249	52,91
294,457	-145,75
294,666	235,18
294,874	-6,49
295,082	61,1
295,291	38,57
295,499	63,15
295,707	159,4
295,915	48,81
296,124	59,05
296,332	124,58
296,54	157,35
296,749	192,17
296,957	-45,4
297,165	71,34
297,373	48,81
297,581	77,48
297,79	30,38
297,998	-51,54
298,206	-4,44
298,414	122,54
298,622	102,06
298,831	265,89
299,039	36,52
299,247	216,74
299,455	67,24
299,663	339,62
299,871	59,05
300,08	-24,92
300,288	13,99
300,496	118,44
300,704	79,53
300,912	34,47
301,12	5,8
301,328	190,12
301,536	126,63
301,744	-102,74
301,952	-82,26
302,16	-57,68
302,368	20,14
302,576	46,76
302,784	235,18
302,992	-69,97
303,2	163,5
303,408	-18,77
303,616	-39,25
303,824	267,94
304,032	384,68
304,24	292,52
304,448	22,19
304,656	52,91
304,864	396,96
305,072	175,78
305,28	54,95
305,488	179,88
305,696	210,6
305,904	54,95
306,111	-178,51
306,319	114,34
306,527	190,12
306,735	145,06
306,943	81,58
307,151	235,18
307,359	-26,96
307,566	161,45
307,774	161,45
307,982	292,52
308,19	-67,92
308,398	-59,73
308,605	5,8
308,813	7,85
309,021	165,54
309,229	128,68
309,436	-18,77
309,644	323,24
309,852	388,77
310,06	161,45
310,267	-24,92
310,475	124,58
310,683	255,65
310,89	102,06
311,098	161,45
311,306	145,06
311,513	313
311,721	-4,44
311,929	32,43
312,136	89,77
312,344	65,19
312,552	159,4
312,759	-6,49
312,967	278,18
313,174	276,13
313,382	110,25
313,589	120,49
313,797	276,13
314,005	247,46
314,212	24,23
314,42	-90,45
314,627	122,54
314,835	102,06
315,042	44,71
315,25	-174,42
315,457	34,47
315,665	-102,74
315,872	167,59
316,08	-22,87
316,287	71,34
316,495	489,12
316,702	48,81
316,909	-84,31
317,117	237,22
317,324	183,98
317,532	292,52
317,739	-86,36
317,946	63,15
318,154	-12,63
318,361	9,9
318,569	167,59
318,776	91,82
318,983	-57,68
319,191	177,83
319,398	75,43
319,605	83,63
319,813	259,75
320,02	-149,84
320,227	233,13
320,434	321,19
320,642	194,22
320,849	11,95
321,056	89,77
321,264	218,79
321,471	188,07
321,678	120,49
321,885	59,05
322,092	296,61
322,3	247,46
322,507	7,85
322,714	87,72
322,921	104,11
323,128	67,24
323,336	89,77
323,543	108,2
323,75	317,09
323,957	306,85
324,164	210,6
324,371	206,5
324,578	16,04
324,786	454,31
324,993	149,16
325,2	212,65
325,407	30,38
325,614	288,42
325,821	349,86
326,028	356,01
326,235	411,3
326,442	374,44
326,649	224,94
326,856	272,04
327,063	192,17
327,27	413,35
327,477	261,8
327,684	79,53
327,891	267,94
328,098	460,45
328,305	372,39
328,512	196,26
328,719	542,37
328,926	683,68
329,133	263,85
329,34	587,43
329,546	698,02
329,753	564,9
329,96	276,13
330,167	571,04
330,374	599,71
330,581	761,5
330,788	280,23
330,995	517,79
331,201	652,96
331,408	603,81
331,615	546,47
331,822	456,36
332,029	655,01
332,235	716,45
332,442	620,19
332,649	655,01
332,856	614,05
333,062	691,87
333,269	655,01
333,476	616,1
333,683	675,49
333,889	994,97
334,096	745,12
334,303	816,8
334,509	951,96
334,716	1011,36
334,923	925,34
335,129	861,85
335,336	1097,37
335,543	1156,76
335,749	769,69
335,956	896,67
336,163	767,65
336,369	1023,64
336,576	872,09
336,782	945,82
336,989	894,62
337,196	1199,77
337,402	1083,03
337,609	874,14
337,815	1279,64
338,022	1349,27
338,228	1347,22
338,435	1603,22
338,641	1644,18
338,848	1566,35
339,054	1502,87
339,261	1341,08
339,467	1398,42
339,674	1840,78
339,88	1642,13
340,087	1500,82
340,293	1740,43
340,5	1775,25
340,706	1740,43
340,912	1447,57
341,119	1631,89
341,325	1783,44
341,532	1752,72
341,738	1726,1
341,944	2129,55
342,151	2055,82
342,357	1984,14
342,563	2041,48
342,77	2168,46
342,976	2061,96
343,182	2256,52
343,389	1898,13
343,595	1986,19
343,801	1857,17
344,007	2025,1
344,214	1672,85
344,42	2098,83
344,626	2119,31
344,832	2141,83
345,039	2156,17
345,245	2549,38
345,451	2328,2
345,657	2489,99
345,864	2248,33
346,07	2547,33
346,276	2690,69
346,482	2674,31
346,688	2668,16
346,894	2657,92
347,1	2717,31
347,307	2586,24
347,513	2875,01
347,719	2811,52
347,925	2844,29
348,131	2705,03
348,337	2946,69
348,543	2963,07
348,749	2780,8
348,955	3010,17
349,161	2748,03
349,367	3188,35
349,573	3493,49
349,779	3397,24
349,985	3495,54
350,191	3819,12
350,397	3694,19
350,603	3683,95
350,809	3440,25
351,015	3802,74
351,221	3487,35
351,427	3667,57
351,633	3634,8
351,839	3708,53
352,045	3569,27
352,251	3585,65
352,457	3430,01
352,663	3942
352,869	3970,67
353,075	4103,79
353,28	4085,36
353,486	4660,84
353,692	4507,24
353,898	4402,79
354,104	4490,85
354,31	4769,38
354,515	4767,33
354,721	4744,8
354,927	4503,14
355,133	4779,62
355,339	4519,53
355,544	4316,78
355,75	4359,78
355,956	4453,99
356,162	4290,15
356,367	3894,9
356,573	3919,47
356,779	3855,98
356,984	4046,44
357,19	4036,21
357,396	3669,62
357,602	4189,8
357,807	3921,52
358,013	3436,15
358,218	3442,29
358,424	3954,29
358,63	4187,75
358,835	4699,75
359,041	4830,82
359,247	5318,23
359,452	5371,48
359,658	5377,62
359,863	5168,73
360,069	5228,12
360,274	5090,91
360,48	4914,78
360,685	4814,43
360,891	5195,36
361,097	4843,1
361,302	4933,22
361,508	5295,71
361,713	5344,86
361,918	5844,56
362,124	5840,47
362,329	6012,49
362,535	6098,51
362,74	5867,09
362,946	5924,43
363,151	5887,57
363,357	6145,61
363,562	6157,9
363,767	6303,31
363,973	6549,06
364,178	6579,78
364,383	6522,44
364,589	6741,57
364,794	7005,76
365	7513,66
365,205	7796,28
365,41	7824,95
365,615	8113,71
365,821	8169,01
366,026	8148,53
366,231	8033,84
366,437	8291,88
366,642	7888,43
366,847	8171,05
367,052	7919,15
367,258	7894,58
367,463	7810,61
367,668	7609,91
367,873	7732,79
368,078	7685,69
368,284	7478,84
368,489	7767,6
368,694	8209,97
368,899	8076,85
369,104	8719,91
369,309	8662,57
369,515	8402,47
369,72	8357,42
369,925	8109,61
370,13	8468,01
370,335	7943,73
370,54	8029,74
370,745	8410,67
370,95	8377,9
371,155	8474,15
371,36	8146,48
371,565	8185,39
371,77	7876,15
371,975	7319,1
372,18	7501,37
372,385	7894,58
372,59	7470,65
372,795	7155,26
373	6665,8
373,205	6764,1
373,41	6862,4
373,615	6858,31
373,82	6499,91
374,025	7024,19
374,23	6573,64
374,435	6551,11
374,64	7083,58
374,845	7728,69
375,05	8080,94
375,254	7984,69
375,459	7949,87
375,664	7947,83
375,869	7980,59
376,074	8001,07
376,279	8085,04
376,483	8549,93
376,688	8762,92
376,893	9088,54
377,098	9381,4
377,303	9917,97
377,507	10133,01
377,712	10028,56
377,917	9893,4
378,122	9864,72
378,326	9225,76
378,531	8637,99
378,736	8308,27
378,94	8181,29
379,145	8111,66
379,35	8093,23
379,554	8064,56
379,759	8447,53
379,964	8642,09
380,168	8713,77
380,373	8996,39
380,578	9078,3
380,782	9205,28
380,987	8275,5
381,191	7560,76
381,396	7253,56
381,601	7122,49
381,805	6614,6
382,01	6116,94
382,214	6016,59
382,419	6000,21
382,623	5379,67
382,828	5471,83
383,032	5570,13
383,237	5430,87
383,441	5797,46
383,646	6745,67
383,85	6948,42
384,055	7560,76
384,259	7767,6
384,464	8029,74
384,668	7908,91
384,872	7743,03
385,077	7564,86
385,281	7499,32
385,486	7452,22
385,69	7867,95
385,894	7978,54
386,099	8173,1
386,303	8097,33
386,507	8513,06
386,712	8058,42
386,916	7849,52
387,12	8031,79
387,325	8422,95
387,529	8220,21
387,733	7960,11
387,937	8433,19
388,142	8033,84
388,346	8468,01
388,55	8703,53
388,754	9385,5
388,959	9440,79
389,163	9956,88
389,367	10003,99
389,571	10010,13
389,775	10552,84
389,98	10427,92
390,184	10425,87
390,388	11240,96
390,592	10901
390,796	10950,15
391	11075,07
391,204	10753,54
391,409	10323,47
391,613	9721,37
391,817	9096,74
392,021	8615,46
392,225	7628,34
392,429	6657,61
392,633	5680,72
392,837	5607
393,041	5471,83
393,245	6166,09
393,449	6755,91
393,653	7730,74
393,857	8762,92
394,061	9649,69
394,265	10046,99
394,469	10948,1
394,673	11056,64
394,877	11496,96
395,081	11240,96
395,285	10776,07
395,489	9821,72
395,693	8902,18
395,896	7827
396,1	7120,45
396,304	6962,75
396,508	6690,37
396,712	7325,24
396,916	8474,15
397,12	10020,37
397,323	10825,22
397,527	12191,22
397,731	13309,41
397,935	13155,81
398,139	14044,63
398,342	14177,75
398,546	14443,98
398,75	14775,75
398,954	14970,31
399,157	14728,65
399,361	15138,24
399,565	14962,12
399,769	15271,36
399,972	15205,83
400,176	15852,98
400,38	15480,25
400,583	15572,41
400,787	16567,73
400,991	16139,7
401,194	16272,82
401,398	16651,69
401,601	16369,07
401,805	16151,99
402,009	16719,28
402,212	16039,35
402,416	16401,84
402,619	16264,63
402,823	16414,13
403,026	15986,1
403,23	15633,85
403,433	16836,01
403,637	16246,19
403,841	16227,76
404,044	16655,79
404,247	16729,52
404,451	16989,61
404,654	16543,15
404,858	16580,01
405,061	16387,5
405,265	16164,28
405,468	16324,02
405,672	15461,82
405,875	15451,58
406,078	15902,14
406,282	15648,19
406,485	15652,28
406,689	16856,49
406,892	16995,75
407,095	15930,81
407,299	15717,82
407,502	16786,86
407,705	16842,15
407,909	17087,91
408,112	18003,35
408,315	18066,84
408,518	18015,64
408,722	16752,04
408,925	16559,53
409,128	16960,94
409,331	16694,7
409,535	16297,39
409,738	15803,83
409,941	16782,76
410,144	16498,09
410,347	17446,3
410,551	17585,57
410,754	18247,06
410,957	18396,56
411,16	18263,44
411,363	18271,64
411,566	18838,92
411,769	18851,21
411,973	18501,01
412,176	18027,93
412,379	18847,12
412,582	18578,83
412,785	18040,22
412,988	18509,2
413,191	18271,64
413,394	18355,6
413,597	18288,02
413,8	18607,5
414,003	19156,36
414,206	18269,59
414,409	18613,65
414,612	18023,83
414,815	18521,49
415,018	18664,85
415,221	18677,13
415,424	18707,85
415,627	19406,21
415,83	19217,8
416,033	18828,68
416,235	19064,2
416,438	19232,13
416,641	18369,94
416,844	18255,25
417,047	18212,24
417,25	17569,18
417,453	18371,99
417,655	17372,58
417,858	18220,44
418,061	17655,2
418,264	17769,88
418,467	17821,08
418,669	17798,56
418,872	18169,24
419,075	17974,68
419,278	17769,88
419,48	18177,43
419,683	18568,59
419,886	18292,12
420,089	19316,1
420,291	18523,54
420,494	19492,23
420,697	18969,99
420,899	19154,31
421,102	17917,34
421,305	18894,22
421,507	17923,48
421,71	18230,68
421,912	18093,46
422,115	17841,56
422,318	17409,44
422,52	17788,32
422,723	18222,48
422,925	18544,02
423,128	18546,06
423,33	18163,09
423,533	17784,22
423,735	18546,06
423,938	18421,14
424,14	18410,9
424,343	18081,17
424,545	18763,15
424,748	18032,02
424,95	17794,46
425,153	19035,53
425,355	18408,85
425,558	19260,8
425,76	18013,59
425,962	18003,35
426,165	17190,31
426,367	18769,29
426,57	18245,01
426,772	17425,82
426,974	17845,66
427,177	17479,07
427,379	17649,05
427,581	17948,06
427,784	18298,26
427,986	16750
428,188	17599,9
428,39	17667,49
428,593	16879,02
428,795	17409,44
428,997	16141,75
429,2	15027,65
429,402	15447,49
429,604	14331,34
429,806	13620,7
430,008	14179,79
430,211	14644,68
430,413	15185,35
430,615	16272,82
430,817	18214,29
431,019	18711,95
431,221	19475,84
431,423	18795,92
431,626	19217,8
431,828	19101,06
432,03	19250,56
432,232	19139,97
432,434	20516,21
432,636	20573,55
432,838	19221,89
433,04	18617,74
433,242	19193,22
433,444	18257,3
433,646	18935,18
433,848	19545,47
434,05	19985,79
434,252	19840,38
434,454	20768,11
434,656	21704,03
434,858	22275,41
435,06	23102,79
435,262	23266,63
435,464	24847,66
435,666	23989,56
435,868	22740,3
436,07	23420,23
436,271	23395,65
436,473	21816,67
436,675	22193,5
436,877	21507,43
437,079	20282,74
437,281	20315,51
437,482	20395,38
437,684	20639,09
437,886	19508,61
438,088	19893,63
438,29	19834,24
438,491	21083,5
438,693	20376,95
438,895	21386,6
439,097	22959,44
439,298	21333,35
439,5	21140,84
439,702	21085,54
439,903	20809,07
440,105	22224,22
440,307	22818,13
440,508	22840,65
440,71	23559,49
440,912	23532,87
441,113	22650,19
441,315	23143,75
441,517	23340,36
441,718	23975,23
441,92	23463,24
442,121	22807,89
442,323	23883,07
442,524	23457,09
442,726	23590,21
442,928	23369,03
443,129	23919,93
443,331	22631,76
443,532	23053,64
443,734	23618,88
443,935	24313,14
444,136	22279,51
444,338	23561,54
444,539	23176,52
444,741	23125,32
444,942	22230,36
445,144	22330,71
445,345	22963,53
445,546	22666,58
445,748	22416,72
445,949	22363,48
446,151	22912,33
446,352	23668,03
446,553	24155,45
446,755	23401,8
446,956	24634,67
447,157	24722,74
447,359	24003,9
447,56	24106,3
447,761	23909,69
447,962	25050,41
448,164	25298,22
448,365	23311,69
448,566	24468,79
448,767	23778,62
448,969	25077,04
449,17	24941,87
449,371	24464,69
449,572	25625,89
449,773	25771,3
449,974	25507,11
450,176	25912,61
450,377	26746,13
450,578	26549,53
450,779	24970,54
450,98	23594,31
451,181	24698,16
451,382	24501,56
451,583	24401,21
451,784	23835,97
451,986	25191,72
452,187	23260,49
452,388	22992,2
452,589	22553,94
452,79	24767,79
452,991	23311,69
453,192	24571,19
453,393	24775,98
453,594	26000,67
453,795	23760,19
453,995	24024,38
454,196	23790,91
454,397	24878,38
454,598	24124,73
454,799	25081,13
455	25185,58
455,201	25087,28
455,402	26017,05
455,603	24755,5
455,804	27004,17
456,004	27032,85
456,205	25840,93
456,406	25474,34
456,607	25066,8
456,808	26012,96
457,008	24997,17
457,209	24421,69
457,41	27315,47
457,611	25177,39
457,811	26086,68
458,012	25998,62
458,213	25756,96
458,414	25679,14
458,614	25986,33
458,815	25744,67
459,016	25849,12
459,216	26647,83
459,417	26510,61
459,618	26692,88
459,818	26711,32
460,019	26232,09
460,22	26692,88
460,42	27567,37
460,621	26031,39
460,821	27284,75
461,022	27249,93
461,223	26137,88
461,423	27581,7
461,624	27561,22
461,824	28562,68
462,025	26991,89
462,225	27872,51
462,426	29316,33
462,626	27931,9
462,827	27884,8
463,027	27303,18
463,228	28013,82
463,428	27247,88
463,628	27241,74
463,829	28187,9
464,029	27127,05
464,23	28050,69
464,43	27471,11
464,63	27827,46
464,831	28212,48
465,031	28540,15
465,231	29312,24
465,432	29203,69
465,632	28953,84
465,832	26832,15
466,033	28953,84
466,233	28476,66
466,433	28218,62
466,634	29037,81
466,834	30194,91
467,034	29084,91
467,234	30645,46
467,435	29971,68
467,635	30627,03
467,835	28652,79
468,035	30651,61
468,235	30293,21
468,436	30389,47
468,636	29750,5
468,836	30082,27
469,036	31620,3
469,236	30102,75
469,436	29439,21
469,636	31120,59
469,836	30719,19
470,037	30713,05
470,237	30975,19
470,437	31765,7
470,637	31509,71
470,837	32470,2
471,037	32816,31
471,237	34102,43
471,437	33963,17
471,637	33682,6
471,837	33868,97
472,037	32914,61
472,237	33326,25
472,437	33483,95
472,637	34618,52
472,837	33957,03
473,036	33463,47
473,236	34651,29
473,436	34065,57
473,636	34888,85
473,836	34569,37
474,036	35652,75
474,236	35712,14
474,436	36152,45
474,635	35769,48
474,835	35363,98
475,035	36723,83
475,235	37506,16
475,435	36433,02
475,634	35757,19
475,834	37983,34
476,034	38073,45
476,234	37885,03
476,433	38306,91
476,633	38861,91
476,833	40160,33
477,033	39933
477,232	40987,71
477,432	39312,47
477,632	41053,24
477,831	40504,38
478,031	40776,76
478,231	41655,34
478,43	42062,89
478,63	42886,17
478,829	42609,7
479,029	43910,16
479,229	44256,26
479,428	44432,39
479,628	45251,58
479,827	45302,78
480,027	45517,81
480,226	46085,1
480,426	47543,25
480,625	45927,41
480,825	48210,89
481,024	48176,08
481,224	48681,92
481,423	47862,74
481,623	48741,31
481,822	48434,12
482,021	48843,71
482,221	49454,01
482,42	49255,36
482,62	49806,26
482,819	48806,85
483,018	49413,05
483,218	48706,5
483,417	49808,31
483,616	49675,19
483,816	48907,2
484,015	49763,25
484,214	48557
484,414	48159,69
484,613	45911,02
484,812	45632,5
485,011	45128,7
485,211	44313,61
485,41	43813,9
485,609	44811,26
485,808	45177,85
486,008	46480,36
486,207	46289,9
486,406	47444,95
486,605	47815,63
486,804	49333,18
487,003	49839,03
487,203	50971,55
487,402	50019,25
487,601	50432,94
487,8	49916,85
487,999	50774,95
488,198	51590,04
488,397	52431,75
488,596	52476,81
488,795	53468,03
488,994	54063,99
489,193	54176,62
489,392	54506,35
489,591	54645,61
489,79	54195,06
489,989	54549,35
490,188	54037,36
490,387	54123,38
490,586	53126,02
490,785	52956,03
490,984	52683,65
491,183	52765,57
491,382	52394,89
491,581	53128,06
491,779	53545,85
491,978	54504,3
492,177	53955,44
492,376	54240,11
492,575	54061,94
492,774	54483,82
492,972	54418,28
493,171	54995,81
493,37	55288,67
493,569	56122,19
493,768	56126,29
493,966	56032,08
494,165	56027,99
494,364	56757,06
494,563	55720,79
494,761	55886,68
494,96	55853,91
495,159	56548,17
495,357	55444,32
495,556	56245,07
495,755	55290,72
495,953	56392,53
496,152	56548,17
496,35	56331,09
496,549	55305,05
496,748	55511,9
496,946	55040,87
497,145	54160,24
497,343	54434,67
497,542	54098,8
497,74	54102,9
497,939	54348,65
498,137	55280,48
498,336	54678,38
498,534	53889,91
498,733	54270,83
498,931	53906,29
499,13	53640,06
499,328	52728,71
499,527	53169,02
499,725	52239,25
499,924	51602,33
500,122	51493,78
500,32	51561,37
500,519	51100,57
500,717	50881,44
500,915	51032,99
501,114	51461,02
501,312	51198,88
501,51	51518,36
501,709	51579,8
501,907	51985,3
502,105	50940,83
502,304	52190,09
502,502	51309,47
502,7	50510,76
502,898	49634,23
503,097	50414,51
503,295	50363,31
503,493	50545,58
503,691	50719,65
503,889	50693,03
504,088	51334,04
504,286	52030,35
504,484	52020,11
504,682	53263,23
504,88	52427,66
505,078	53267,33
505,276	52956,03
505,474	53341,05
505,672	52366,22
505,871	52089,74
506,069	52259,73
506,267	51811,22
506,465	51768,21
506,663	51149,73
506,861	50852,77
507,059	51284,89
507,257	51213,21
507,455	51458,97
507,653	51684,25
507,851	52994,95
508,049	51639,19
508,246	52624,26
508,444	52054,93
508,642	52915,08
508,84	52063,12
509,038	52360,08
509,236	52257,68
509,434	51889,04
509,632	52943,75
509,829	52591,5
510,027	52562,82
510,225	53052,29
510,423	53873,52
510,621	53171,07
510,818	53838,71
511,016	53597,05
511,214	53525,37
511,412	52945,79
511,609	52419,47
511,807	53777,27
512,005	52708,23
512,203	52292,49
512,4	52085,65
512,598	52263,82
512,796	52216,72
512,993	52269,97
513,191	52358,03
513,389	52108,18
513,586	52960,13
513,784	52718,47
513,981	52853,64
514,179	53429,12
514,377	53547,9
514,574	53504,89
514,772	53068,67
514,969	53326,72
515,167	51772,31
515,364	51483,55
515,562	49589,17
515,759	49384,38
515,957	48028,62
516,154	48585,67
516,352	48810,95
516,549	49662,9
516,746	49044,41
516,944	49259,45
517,141	49169,34
517,339	49177,53
517,536	49908,66
517,733	49705,91
517,931	51026,85
518,128	52362,12
518,325	51723,16
518,523	53353,34
518,72	53207,93
518,917	54451,05
519,115	54819,69
519,312	54702,95
519,509	54575,98
519,707	55348,06
519,904	55298,91
520,101	55501,66
520,298	55786,33
520,495	56343,37
520,693	55397,21
520,89	56527,69
521,087	54961
521,284	56597,32
521,481	55196,51
521,678	55802,71
521,876	54930,28
522,073	56075,09
522,27	56122,19
522,467	56050,52
522,664	56884,04
522,861	57826,1
523,058	57219,91
523,255	57547,58
523,452	57502,53
523,649	57621,31
523,846	57189,19
524,043	57731,9
524,24	57695,03
524,437	57262,91
524,634	57070,4
524,831	56656,71
525,028	55769,94
525,225	55227,23
525,422	53930,87
525,619	53130,11
525,816	52315,02
526,013	53484,41
526,209	53330,81
526,406	53738,36
526,603	53830,52
526,8	54459,24
526,997	54844,26
527,194	55853,91
527,39	55978,84
527,587	56474,44
527,784	57301,82
527,981	57301,82
528,177	57307,97
528,374	57412,41
528,571	57473,85
528,768	57174,85
528,964	57058,12
529,161	57604,92
529,358	57908,02
529,554	57699,13
529,751	57899,83
529,948	58131,25
530,144	58202,93
530,341	58301,23
530,537	58172,21
530,734	58399,54
530,931	56894,28
531,127	56902,47
531,324	56240,98
531,52	55608,15
531,717	55268,19
531,913	55237,47
532,11	55255,9
532,306	56056,66
532,503	55358,3
532,699	55688,02
532,896	55954,26
533,092	55815
533,289	55933,78
533,485	56488,78
533,682	55884,63
533,878	56820,55
534,074	56220,5
534,271	57738,04
534,467	56959,81
534,664	57727,8
534,86	57537,34
535,056	57264,96
535,253	56204,11
535,449	56994,63
535,645	55653,21
535,841	55753,56
536,038	55606,11
536,234	55540,57
536,43	56314,7
536,626	55812,95
536,823	55692,12
537,019	56703,82
537,215	56589,13
537,411	56335,18
537,607	56187,73
537,804	55950,16
538	55841,62
538,196	55296,86
538,392	55059,3
538,588	54975,33
538,784	54541,16
538,98	54106,99
539,176	53644,15
539,373	54432,62
539,569	53713,78
539,765	53846,9
539,961	54096,75
540,157	54741,86
540,353	54299,5
540,549	55706,46
540,745	55243,62
540,941	56009,56
541,137	56169,3
541,333	56212,3
541,528	56720,2
541,724	56777,54
541,92	56728,39
542,116	56916,81
542,312	57107,27
542,508	57602,88
542,704	57629,5
542,9	57457,47
543,096	57332,54
543,291	57735,99
543,487	57537,34
543,683	57142,08
543,879	56988,49
544,075	56970,05
544,27	57836,34
544,466	57762,62
544,662	57606,97
544,858	58417,97
545,053	57711,42
545,249	58063,67
545,445	57006,92
545,64	56773,45
545,836	56417,1
546,032	55272,29
546,227	55087,97
546,423	54438,76
546,619	54090,61
546,814	53996,4
547,01	53775,22
547,205	54066,03
547,401	53558,14
547,597	53996,4
547,792	53502,84
547,988	53947,25
548,183	53222,27
548,379	54106,99
548,574	53150,59
548,77	53533,56
548,965	53085,06
549,161	53035,91
549,356	52493,19
549,552	53179,26
549,747	52994,95
549,942	52151,18
550,138	52638,6
550,333	52554,63
550,529	52888,45
550,724	53312,38
550,919	52364,17
551,115	52790,15
551,31	52378,51
551,505	52419,47
551,701	51598,23
551,896	51628,95
552,091	52206,48
552,287	51989,39
552,482	51817,36
552,677	51719,06
552,872	51168,16
553,067	50944,93
553,263	51932,05
553,458	51731,35
553,653	51493,78
553,848	51956,63
554,043	51166,11
554,239	51504,02
554,434	51358,62
554,629	50467,75
554,824	49996,72
555,019	50492,33
555,214	49961,9
555,409	49677,24
555,604	49826,74
555,799	49558,45
555,994	49349,56
556,189	49161,15
556,384	48880,58
556,579	49544,12
556,774	49202,11
556,969	48765,89
557,164	47705,04
557,359	48288,71
557,554	47455,19
557,749	47256,54
557,944	47021,02
558,139	47023,07
558,334	46947,29
558,529	46982,11
558,724	46496,74
558,918	47168,47
559,113	47244,25
559,308	48002
559,503	47317,98
559,698	47782,87
559,893	47727,57
560,087	47365,08
560,282	46984,16
560,477	47414,23
560,672	46951,39
560,866	46781,41
561,061	46705,63
561,256	47604,69
561,45	46816,22
561,645	47408,09
561,84	46777,31
562,034	46836,7
562,229	46633,96
562,424	46683,11
562,618	46369,77
562,813	46728,16
563,008	46210,03
563,202	46734,31
563,397	45947,89
563,591	46568,42
563,786	46083,05
563,98	45927,41
564,175	45267,96
564,369	45249,53
564,564	45282,3
564,758	44620,8
564,953	44497,92
565,147	45011,96
565,342	44583,94
565,536	45106,17
565,731	44772,35
565,925	45433,85
566,119	44913,66
566,314	45147,13
566,508	43947,02
566,703	44672
566,897	43633,68
567,091	43744,27
567,286	43656,21
567,48	43750,42
567,674	43185,18
567,868	43342,87
568,063	42595,36
568,257	43410,45
568,451	42740,77
568,646	42443,81
568,84	42290,21
569,034	42001,45
569,228	41712,69
569,422	41403,44
569,616	40870,97
569,811	41368,63
570,005	41378,87
570,199	41307,19
570,393	41503,79
570,587	42107,94
570,781	41643,06
570,975	41616,43
571,169	41727,02
571,364	42548,26
571,558	42460,19
571,752	42427,43
571,946	41634,86
572,14	42982,43
572,334	42320,93
572,528	42441,76
572,722	41589,81
572,916	42390,56
573,109	41767,98
573,303	41315,38
573,497	41258,04
573,691	41983,02
573,885	41163,83
574,079	41196,6
574,273	40791,1
574,467	40721,47
574,661	40836,16
574,854	40363,07
575,048	40401,99
575,242	41049,14
575,436	41249,85
575,63	40856,64
575,823	41212,98
576,017	41397,3
576,211	40621,12
576,405	40950,84
576,598	40625,21
576,792	41118,78
576,986	40592,45
577,18	40096,84
577,373	40197,19
577,567	40606,78
577,761	40811,58
577,954	40991,8
578,148	40672,32
578,341	41458,74
578,535	41530,42
578,729	41604,14
578,922	41471,03
579,116	41962,54
579,309	41237,56
579,503	41792,56
579,696	41630,77
579,89	42322,98
580,083	42069,03
580,277	41802,8
580,47	42081,32
580,664	42425,38
580,857	42062,89
581,051	41913,39
581,244	41983,02
581,437	42787,87
581,631	42619,94
581,824	42916,89
582,018	42859,55
582,211	42832,93
582,404	43344,92
582,598	42791,97
582,791	43066,39
582,984	42570,79
583,178	43316,25
583,371	43129,88
583,564	42548,26
583,757	42865,69
583,951	42425,38
584,144	41690,16
584,337	41212,98
584,53	41911,34
584,723	40952,89
584,917	41229,37
585,11	40959,03
585,303	41741,36
585,496	41503,79
585,689	41208,89
585,882	40905,79
586,075	40926,27
586,268	40789,05
586,462	40498,24
586,655	39781,45
586,848	40109,13
587,041	39052,37
587,234	38263,91
587,427	37336,18
587,62	36576,38
587,813	35384,46
588,006	34679,96
588,199	33852,58
588,392	34120,87
588,585	33997,99
588,777	33748,14
588,97	33977,51
589,163	35640,46
589,356	35423,37
589,549	35335,31
589,742	35323,02
589,935	35650,7
590,128	35771,53
590,32	35511,44
590,513	35386,51
590,706	36072,58
590,899	35722,38
591,092	35454,09
591,284	35875,98
591,477	36646,01
591,67	36848,76
591,863	36631,68
592,055	36734,07
592,248	36813,94
592,441	36936,82
592,633	36568,19
592,826	35685,51
593,019	36043,91
593,211	35648,65
593,404	35404,94
593,596	34827,42
593,789	35396,75
593,982	35613,84
594,174	35286,16
594,367	35480,72
594,559	36394,11
594,752	36193,41
594,944	35769,48
595,137	36222,08
595,329	36119,68
595,522	36215,94
595,714	36267,14
595,907	36328,58
596,099	36017,29
596,292	36351,1
596,484	35888,26
596,676	35654,79
596,869	36639,87
597,061	37272,69
597,253	36560
597,446	35964,04
597,638	36799,61
597,83	36547,71
598,023	36418,69
598,215	36459,65
598,407	36609,15
598,6	36340,86
598,792	36635,77
598,984	36181,12
599,176	36326,53
599,369	36922,49
599,561	36719,74
599,753	35996,81
599,945	36605,05
600,137	36105,35
600,329	36013,19
600,522	35628,17
600,714	36002,95
600,906	35832,97
601,098	36304
601,29	36045,96
601,482	36416,64
601,674	36308,1
601,866	36492,41
602,058	36463,74
602,25	36691,07
602,442	37012,6
602,634	36390,02
602,826	36109,44
603,018	36334,72
603,21	36822,14
603,402	36191,36
603,594	36295,81
603,786	37002,36
603,978	36779,13
604,17	36045,96
604,362	36326,53
604,554	36568,19
604,745	36293,76
604,937	36289,66
605,129	36215,94
605,321	35992,71
605,513	35925,13
605,704	36093,06
605,896	35732,62
606,088	36105,35
606,28	35669,13
606,471	35597,45
606,663	35441,81
606,855	35323,02
607,047	35792,01
607,238	35423,37
607,43	34831,51
607,622	35630,22
607,813	34999,44
608,005	35228,82
608,197	34913,43
608,388	35447,95
608,58	34595,99
608,771	35853,45
608,963	34958,49
609,154	35359,89
609,346	35275,92
609,537	36379,78
609,729	36271,23
609,921	37749,87
610,112	37882,98
610,303	37481,58
610,495	37219,44
610,686	37436,53
610,878	36828,28
611,069	36017,29
611,261	36045,96
611,452	35521,68
611,643	35024,02
611,835	34909,33
612,026	34360,48
612,217	34956,44
612,409	34088,1
612,6	34241,7
612,791	33500,33
612,983	33926,31
613,174	34378,91
613,365	33440,94
613,557	33199,28
613,748	33356,97
613,939	32900,28
614,13	32908,47
614,321	32232,64
614,513	32931
614,704	32257,21
614,895	31728,84
615,086	31300,81
615,277	31667,4
615,468	31497,42
615,659	31528,14
615,851	30805,2
616,042	31644,87
616,233	31382,73
616,424	31325,39
616,615	31868,1
616,806	31907,01
616,997	31358,16
617,188	31808,71
617,379	31444,17
617,57	32500,92
617,761	32236,73
617,952	31648,97
618,143	32036,03
618,334	32294,08
618,524	32212,16
618,715	32580,79
618,906	32398,52
619,097	32431,29
619,288	32631,99
619,479	32679,1
619,67	32476,35
619,86	32492,73
620,051	32496,83
620,242	32330,94
620,433	32261,31
620,624	32939,19
620,814	32730,3
621,005	32742,58
621,196	32275,65
621,386	32679,1
621,577	32806,07
621,768	32208,06
621,958	32238,78
622,149	32427,2
622,34	32529,59
622,53	32152,77
622,721	32054,47
622,912	32484,54
623,102	32476,35
623,293	32240,83
623,483	31831,24
623,674	32466,11
623,864	32296,13
624,055	31665,35
624,245	31890,63
624,436	32036,03
624,626	31841,48
624,817	31859,91
625,007	31845,57
625,198	32488,63
625,388	32142,53
625,579	32195,78
625,769	32025,79
625,959	32003,27
626,15	31487,18
626,34	30702,81
626,531	30411,99
626,721	31073,49
626,911	30133,47
627,101	30469,34
627,292	30080,22
627,482	30721,24
627,672	31259,85
627,863	30934,23
628,053	30833,88
628,243	30819,54
628,433	30575,83
628,623	30639,32
628,814	30373,08
629,004	31481,03
629,194	30915,79
629,384	30889,17
629,574	30637,27
629,764	31933,64
629,955	31190,22
630,145	31067,34
630,335	30944,47
630,525	30794,96
630,715	31040,72
630,905	30883,03
631,095	30711
631,285	31515,85
631,475	30588,12
631,665	31304,91
631,855	30934,23
632,045	31024,34
632,235	31016,15
632,425	30479,58
632,615	30575,83
632,805	30903,51
632,994	30196,96
633,184	30971,09
633,374	30586,07
633,564	31106,26
633,754	31132,88
633,944	30760,15
634,133	30457,05
634,323	31411,4
634,513	30829,78
634,703	30688,47
634,893	30555,35
635,082	31122,64
635,272	30461,15
635,462	30624,98
635,651	31478,99
635,841	30973,14
636,031	31036,63
636,221	30584,02
636,41	30891,22
636,6	30694,61
636,789	31030,48
636,979	30950,61
637,169	31018,19
637,358	30334,17
637,548	30751,96
637,737	30549,21
637,927	30561,5
638,116	30686,42
638,306	30491,87
638,495	30395,61
638,685	29822,18
638,874	29857
639,064	29897,95
639,253	30158,05
639,443	29744,36
639,632	30403,8
639,822	29742,31
640,011	29955,3
640,2	29529,32
640,39	30082,27
640,579	29803,75
640,768	29373,67
640,958	29523,18
641,147	29811,94
641,336	29541,61
641,526	29336,81
641,715	29256,94
641,904	29748,45
642,093	28947,7
642,283	29633,77
642,472	28837,11
642,661	29549,8
642,85	29586,66
643,039	28994,8
643,228	28998,9
643,418	28878,07
643,607	28810,48
643,796	28814,58
643,985	28007,68
644,174	28220,67
644,363	28224,76
644,552	28214,52
644,741	27122,96
644,93	27446,54
645,119	27262,22
645,308	27323,66
645,497	26684,69
645,686	27012,37
645,875	26184,99
646,064	25853,22
646,253	25658,66
646,442	26340,63
646,631	25730,34
646,82	25283,88
647,009	25582,88
647,198	25763,11
647,387	25562,4
647,575	25023,79
647,764	25490,73
647,953	25472,29
648,142	25124,14
648,331	25062,7
648,519	24997,17
648,708	25896,22
648,897	25384,23
649,086	26172,7
649,274	26045,73
649,463	26160,41
649,652	26662,16
649,84	25754,91
650,029	25414,95
650,218	25425,19
650,406	25484,58
650,595	25249,07
650,784	25226,54
650,972	26105,12
651,161	25460,01
651,349	25591,08
651,538	25863,46
651,726	26002,72
651,915	26049,82
652,104	26039,58
652,292	25609,51
652,481	26053,92
652,669	26172,7
652,857	25953,57
653,046	25603,36
653,234	25152,81
653,423	25629,99
653,611	24991,02
653,8	24386,87
653,988	24597,81
654,176	23901,5
654,365	23233,86
654,553	22594,9
654,741	22674,77
654,93	21740,89
655,118	21581,15
655,306	21593,44
655,494	22123,87
655,683	22140,25
655,871	22383,96
656,059	22943,05
656,247	23137,61
656,436	23631,17
656,624	23803,2
656,812	23625,03
657	24087,87
657,188	24464,69
657,376	24542,52
657,564	24382,77
657,753	24524,08
657,941	24620,34
658,129	25070,89
658,317	24370,49
658,505	25158,95
658,693	24853,81
658,881	24667,44
659,069	24735,03
659,257	24814,9
659,445	25111,85
659,633	25124,14
659,821	24950,06
660,009	25400,62
660,197	25271,59
660,384	25290,02
660,572	24962,35
660,76	25584,93
660,948	25421,09
661,136	25306,41
661,324	25072,94
661,512	25562,4
661,699	24823,09
661,887	25040,17
662,075	24988,97
662,263	24986,93
662,451	24839,47
662,638	24567,09
662,826	24468,79
663,014	25373,99
663,201	24651,06
663,389	24472,89
663,577	24651,06
663,764	25255,21
663,952	24499,51
664,14	24640,82
664,327	24354,1
664,515	25038,12
664,702	24528,18
664,89	24214,84
665,078	23876,93
665,265	24237,37
665,453	24350,01
665,64	24034,62
665,828	24038,72
666,015	24071,48
666,203	24120,63
666,39	23987,52
666,578	23909,69
666,765	23885,12
666,952	24356,15
667,14	24065,34
667,327	23909,69
667,515	24046,91
667,702	24126,78
667,889	23891,26
668,077	23594,31
668,264	23975,23
668,451	24024,38
668,638	23889,21
668,826	23321,93
669,013	24208,7
669,2	23854,4
669,388	23547,2
669,575	23301,45
669,762	23252,3
669,949	23008,59
670,136	27464,97
670,323	22674,77
670,511	23203,14
670,698	22832,46
670,885	22828,37
671,072	22549,84
671,259	23285,06
671,446	22988,11
671,633	22723,92
671,82	22406,48
672,007	22791,5
672,194	22639,95
672,381	22836,56
672,568	22506,84
672,755	22863,18
672,942	22490,45
673,129	22193,5
673,316	22371,67
673,503	22478,16
673,69	22578,51
673,877	22394,2
674,064	22402,39
674,251	22195,54
674,437	22156,63
674,624	22367,57
674,811	21874,01
674,998	22052,19
675,185	22254,94
675,372	22193,5
675,558	21937,5
675,745	22254,94
675,932	22173,02
676,119	21833,05
676,305	21718,37
676,492	22166,87
676,679	21658,98
676,865	21550,43
677,052	21706,08
677,239	22046,04
677,425	21603,68
677,612	21523,81
677,798	21511,52
677,985	21914,97
678,172	21644,64
678,358	21153,13
678,545	21093,74
678,731	21239,14
678,918	21323,11
679,104	20974,95
679,291	21065,07
679,477	21044,59
679,664	20737,39
679,85	20878,7
680,036	20516,21
680,223	20700,53
680,409	21239,14
680,596	20376,95
680,782	20911,47
680,968	20841,84
681,155	20710,77
681,341	20565,36
681,527	20348,28
681,714	20778,35
681,9	20153,72
682,086	20200,82
682,272	20174,2
682,459	20245,88
682,645	20317,56
682,831	19846,52
683,017	19717,5
683,204	20338,04
683,39	19770,75
683,576	19780,99
683,762	19461,51
683,948	19905,91
684,134	19041,67
684,32	19137,93
684,506	19010,95
684,693	19234,18
684,879	17931,67
685,065	17122,73
685,251	15795,64
685,437	15203,78
685,623	14163,41
685,809	13823,45
685,995	13161,95
686,181	13563,36
686,366	13696,47
686,552	13852,12
686,738	13735,39
686,924	14253,52
687,11	14087,64
687,296	13661,66
687,482	13706,71
687,668	13907,41
687,853	13991,38
688,039	13786,58
688,225	13784,54
688,411	14243,28
688,597	14929,35
688,782	14466,51
688,968	14282,19
689,154	14970,31
689,34	15367,62
689,525	15308,23
689,711	14794,18
689,897	15934,9
690,082	15584,7
690,268	15257,03
690,454	15072,71
690,639	15535,55
690,825	15592,89
691,01	15211,97
691,196	14878,15
691,381	15269,31
691,567	15095,24
691,753	14790,09
691,938	14665,16
692,124	14659,02
692,309	14636,49
692,494	14190,03
692,68	14134,74
692,865	14400,97
693,051	14542,28
693,236	14159,31
693,422	14130,64
693,607	14513,61
693,792	14337,49
693,978	14554,57
694,163	14360,02
694,348	14654,92
694,534	14996,93
694,719	14579,15
694,904	14874,06
695,089	15549,89
695,275	15435,2
695,46	15250,88
695,645	15756,73
695,83	16055,73
696,016	15547,84
696,201	15619,52
696,386	15637,95
696,571	15805,88
696,756	15359,42
696,941	15582,65
697,126	14753,23
697,311	15111,62
697,497	14599,63
697,682	14497,23
697,867	14380,5
698,052	14767,56
698,237	14706,12
698,422	14460,37
698,607	14040,53
698,792	14112,21
698,977	13938,13
699,162	13874,65
699,347	13592,03
699,531	14257,62
699,716	13952,47
699,901	13452,77
700,086	13266,4
700,271	14108,12
700,456	14087,64
700,641	13493,72
700,825	13463,01
701,01	14173,65
701,195	13956,57
701,38	13706,71
701,565	13512,16
701,749	14226,9
701,934	14106,07
702,119	14097,88
702,303	13843,93
702,488	14403,02
702,673	14630,35
702,857	14265,81
703,042	14122,45
703,227	14888,39
703,411	14224,85
703,596	14312,91
703,78	14138,83
703,965	14173,65
704,15	14220,75
704,334	14097,88
704,519	13911,51
704,703	14239,19
704,888	14169,55
705,072	13936,09
705,257	13964,76
705,441	14208,47
705,625	14534,09
705,81	14294,48
705,994	14196,18
706,179	14642,64
706,363	14435,79
706,547	14226,9
706,732	14179,79
706,916	14417,36
707,1	14124,5
707,285	14317,01
707,469	14138,83
707,653	14609,87
707,837	14515,66
708,022	14140,88
708,206	14175,7
708,39	14087,64
708,574	14284,24
708,759	14013,91
708,943	13620,7
709,127	14403,02
709,311	14480,85
709,495	13739,48
709,679	14036,44
709,863	14345,68
710,047	14106,07
710,231	14091,73
710,415	13688,28
710,6	14216,66
710,784	13944,28
710,968	14034,39
711,152	13995,48
711,336	13927,89
711,519	14226,9
711,703	13585,88
711,887	13671,9
712,071	13938,13
712,255	13493,72
712,439	13565,4
712,623	13108,71
712,807	13544,92
712,991	13129,19
713,174	12731,88
713,358	13112,8
713,542	13207,01
713,726	12750,31
713,91	12635,63
714,093	12635,63
714,277	12905,96
714,461	12600,81
714,645	11697,66
714,828	11390,46
715,012	11275,77
715,196	10679,82
715,379	10151,44
715,563	9764,37
715,747	9721,37
715,93	9340,44
716,114	8810,02
716,297	8308,27
716,481	8279,6
716,664	8183,34
716,848	7648,82
717,031	7708,21
717,215	7515,7
717,398	7398,97
717,582	7200,32
717,765	7091,77
717,949	7067,2
718,132	7036,48
718,316	6520,39
718,499	6542,92
718,682	7355,96
718,866	6819,39
719,049	7136,83
719,233	7444,03
719,416	8261,16
719,599	8681
719,782	8386,09
719,966	8713,77
720,149	9176,61
720,332	9758,23
720,515	9461,27
720,699	9453,08
720,882	9893,4
721,065	9674,26
721,248	9301,53
721,431	8939,04
721,615	9162,27
721,798	9016,87
721,981	8291,88
722,164	7939,63
722,347	8345,13
722,53	8603,18
722,713	7822,9
722,896	7704,12
723,079	7931,44
723,262	7749,17
723,445	7548,47
723,628	7337,53
723,811	7538,23
723,994	7523,9
724,177	7505,46
724,36	7435,83
724,543	7917,11
724,726	7466,55
724,909	7657,01
725,091	7685,69
725,274	7720,5
725,457	7738,93
725,64	7458,36
725,823	7376,44
726,006	7353,91
726,188	7431,74
726,371	7448,12
726,554	7450,17
726,737	7882,29
726,919	8011,31
727,102	7609,91
727,285	7376,44
727,467	7384,63
727,65	7517,75
727,833	7173,69
728,015	7274,04
728,198	7771,7
728,38	7636,53
728,563	7382,59
728,746	7304,76
728,928	7628,34
729,111	7564,86
729,293	7476,79
729,476	7513,66
729,658	7732,79
729,841	7702,07
730,023	7534,14
730,205	7757,36
730,388	8201,77
730,57	8599,08
730,753	8396,33
730,935	8502,82
731,117	9264,67
731,3	8873,51
731,482	8781,35
731,664	8973,86
731,847	9416,22
732,029	9244,19
732,211	9535
732,394	9330,2
732,576	9917,97
732,758	10044,95
732,94	9561,62
733,122	9440,79
733,305	10034,71
733,487	9502,23
733,669	9424,41
733,851	9293,34
734,033	9807,38
734,215	9676,31
734,397	9336,35
734,58	9500,19
734,762	9528,86
734,944	9491,99
735,126	9072,16
735,308	9182,75
735,49	9326,11
735,672	9168,41
735,854	9334,3
736,036	9455,13
736,218	9940,5
736,399	9956,88
736,581	9481,75
736,763	9522,71
736,945	9848,34
737,127	9428,51
737,309	9604,63
737,491	9405,98
737,672	9580,06
737,854	9512,47
738,036	9530,91
738,218	9418,27
738,4	9438,75
738,581	9614,87
738,763	9526,81
738,945	9537,05
739,127	9614,87
739,308	9676,31
739,49	9727,51
739,672	9303,58
739,853	9815,57
740,035	9664,02
740,216	9410,08
740,398	9362,97
740,58	9897,49
740,761	9784,85
740,943	9737,75
741,124	9680,41
741,306	9850,39
741,487	9866,77
741,669	9813,52
741,85	9500,19
742,032	9975,31
742,213	9930,26
742,394	9469,47
742,576	9537,05
742,757	10044,95
742,939	9987,6
743,12	9541,15
743,301	9184,8
743,483	9596,44
743,664	9532,95
743,845	9678,36
744,027	9102,88
744,208	9539,1
744,389	9565,72
744,57	9405,98
744,752	9186,85
744,933	9565,72
745,114	9236
745,295	9279,01
745,476	9410,08
745,657	9276,96
745,839	9448,99
746,02	9152,03
746,201	9350,68
746,382	9514,52
746,563	9774,61
746,744	9129,5
746,925	9063,97
747,106	9397,79
747,287	9485,85
747,468	9043,49
747,649	9225,76
747,83	9274,91
748,011	9238,05
748,192	8980
748,373	8889,89
748,554	8943,14
748,735	9168,41
748,915	8619,56
749,096	8631,85
749,277	9174,56
749,458	9135,65
749,639	8742,44
749,82	8965,67
750	8955,43
750,181	9145,89
750,362	8791,59
750,543	9008,67
750,723	9238,05
750,904	8967,71
751,085	8988,19
751,265	8934,95
751,446	9147,94
751,627	9037,34
751,807	8971,81
751,988	8861,22
752,169	9479,71
752,349	9172,51
752,53	9137,7
752,71	8871,46
752,891	9618,97
753,071	9352,73
753,252	9023,01
753,432	9016,87
753,613	9416,22
753,793	9342,49
753,974	9182,75
754,154	9006,63
754,334	9770,52
754,515	9289,24
754,695	9391,64
754,876	9002,53
755,056	9653,78
755,236	9438,75
755,417	9209,37
755,597	8969,76
755,777	9393,69
755,957	9434,65
756,138	9197,09
756,318	9121,31
756,498	9532,95
756,678	9254,43
756,859	9287,2
757,039	8928,8
757,219	9207,33
757,399	8572,46
757,579	7540,28
757,759	6587,97
757,939	5729,88
758,119	5123,68
758,3	3700,34
758,48	3071,61
758,66	2344,58
758,84	1779,34
759,02	1312,41
759,2	997,02
759,38	1324,69
759,56	1642,13
759,74	1554,07
759,919	1758,86
760,099	2690,69
760,279	3038,84
760,459	2823,81
760,639	2662,02
760,819	3100,28
760,999	2512,52
761,178	2352,77
761,358	2233,99
761,538	2250,38
761,718	2225,8
761,898	1988,24
762,077	2190,99
762,257	2557,57
762,437	2707,07
762,616	2651,78
762,796	2635,39
762,976	3196,54
763,155	3280,5
763,335	3272,31
763,515	3569,27
763,694	4302,44
763,874	4257,39
764,053	4478,57
764,233	4738,66
764,413	5105,24
764,592	5252,7
764,772	5396,06
764,951	5486,17
765,131	5916,24
765,31	6334,03
765,489	6090,32
765,669	6311,5
765,848	6927,94
766,028	6757,96
766,207	6585,93
766,386	6895,17
766,566	7026,24
766,745	7333,43
766,924	7106,11
767,104	7155,26
767,283	7145,02
767,462	7779,89
767,642	7263,8
767,821	6925,89
768	7126,59
768,179	7499,32
768,358	7439,93
768,538	7163,45
768,717	7509,56
768,896	7337,53
769,075	7353,91
769,254	6975,04
769,433	7476,79
769,612	7319,1
769,791	6811,2
769,97	6905,41
770,149	7556,66
770,328	6848,07
770,507	6905,41
770,686	6733,38
770,865	7208,51
771,044	7001,66
771,223	6731,33
771,402	6639,17
771,581	6968,9
771,76	6760
771,939	6714,95
772,118	6694,47
772,297	6819,39
772,475	6803,01
772,654	6616,65
772,833	6401,61
773,012	6977,09
773,191	6735,43
773,369	6424,14
773,548	6291,02
773,727	6104,65
773,906	6846,02
774,084	6252,11
774,263	6200,91
774,442	6180,43
774,62	6059,6
774,799	6063,69
774,977	6229,58
775,156	6534,73
775,335	6305,35
775,513	5992,02
775,692	5764,69
775,87	6395,47
776,049	5717,59
776,227	5602,9
776,406	5498,45
776,584	6018,64
776,763	6049,36
776,941	5477,98
777,119	5779,03
777,298	5535,32
777,476	6022,73
777,655	5346,91
777,833	5367,38
778,011	5766,74
778,19	5822,03
778,368	5465,69
778,546	5244,51
778,725	5715,54
778,903	5269,08
779,081	5334,62
779,259	5148,25
779,437	5486,17
779,616	5453,4
779,794	5140,06
779,972	5119,58
780,15	5326,43
780,328	5154,4
780,506	5131,87
780,685	5217,88
780,863	5074,53
781,041	4994,65
781,219	4861,54
781,397	5074,53
781,575	5131,87
781,753	5004,89
781,931	4755,04
782,109	4634,21
782,287	4843,1
782,465	4961,89
782,643	4689,51
782,82	4685,41
782,998	5187,16
783,176	5207,64
783,354	4570,72
783,532	4410,98
783,71	4777,57
783,888	4611,68
784,065	4453,99
784,243	4413,03
784,421	4615,78
784,599	4507,24
784,776	4347,5
784,954	4101,74
785,132	4302,44
785,31	4122,22
785,487	4120,17
785,665	4179,56
785,842	4320,87
786,02	4738,66
786,198	4017,77
786,375	3767,92
786,553	4154,99
786,73	3982,96
786,908	3731,06
787,085	3749,49
787,263	3917,42
787,44	3800,69
787,618	3802,74
787,795	3282,55
787,973	3561,08
788,15	3739,25
788,328	3503,73
788,505	3716,72
788,682	3829,36
788,86	3575,41
789,037	3536,5
789,215	3354,23
789,392	3692,15
789,569	3921,52
789,746	3450,49
789,924	3243,64
790,101	3712,63
790,278	3898,99
790,455	3380,86
790,633	3411,57
790,81	3559,03
790,987	3485,3
791,164	3411,57
791,341	3257,98
791,518	3311,22
791,695	3741,3
791,873	3268,22
792,05	3290,74
792,227	3581,56
792,404	3540,6
792,581	3305,08
792,758	3206,78
792,935	3321,46
793,112	3583,6
793,289	3233,4
793,466	3163,77
793,643	3300,98
793,82	3174,01
793,996	3094,14
794,173	2958,97
794,35	2840,19
794,527	3247,74
794,704	3108,48
794,881	2686,59
795,057	3069,56
795,234	2846,34
795,411	2938,49
795,588	2872,96
795,765	2920,06
795,941	3225,21
796,118	2928,25
796,295	2879,1
796,471	3133,05
796,648	2965,12
796,825	2944,64
797,001	2813,57
797,178	3255,93
797,354	3196,54
797,531	2766,46
797,708	2604,67
797,884	3169,91
798,061	2743,94
798,237	2510,47
798,414	2504,32
798,59	2881,15
798,767	2872,96
798,943	2565,76
799,119	2510,47
799,296	2780,8
799,472	2795,14
799,649	2446,98
799,825	2520,71
800,001	2655,87
800,178	2582,15
800,354	2524,8
800,53	2373,25
800,707	2504,32
800,883	2473,6
801,059	2332,3
801,235	2772,61
801,411	2459,27
801,588	2479,75
801,764	2475,65
801,94	2254,47
802,116	2549,38
802,292	2365,06
802,468	2309,77
802,645	2365,06
802,821	2805,38
802,997	2576
803,173	2240,14
803,349	2338,44
803,525	2678,4
803,701	2651,78
803,877	2424,45
804,053	2182,79
804,229	2680,45
804,405	2877,05
804,581	2277
804,756	2176,65
804,932	2348,68
805,108	2541,19
805,284	2233,99
805,46	2287,24
805,636	2604,67
805,812	2446,98
805,987	2129,55
806,163	2113,16
806,339	5609,05
806,515	2240,14
806,69	2180,75
806,866	2147,98
807,042	2432,65
807,217	2307,72
807,393	2119,31
807,569	1828,49
807,744	2518,66
807,92	2780,8
808,096	1918,61
808,271	2027,15
808,447	2143,88
808,622	2180,75
808,798	1758,86
808,973	1781,39
809,149	2229,9
809,324	2094,73
809,5	1689,23
809,675	1734,29
809,851	1889,93
810,026	1973,9
810,201	1650,32
810,377	1619,6
810,552	1957,52
810,728	2041,48
810,903	1640,08
811,078	1511,06
811,253	1828,49
811,429	1349,27
811,604	1203,86
811,779	1296,02
811,955	1658,51
812,13	1592,98
812,305	1205,91
812,48	1232,54
812,655	1842,83
812,83	1607,31
813,006	1015,45
813,181	1031,83
813,356	1160,86
813,531	1244,82
813,706	1023,64
813,881	980,64
814,056	1240,73
814,231	1509,01
814,406	1005,21
814,581	767,65
814,756	1167
814,931	1068,7
815,106	843,42
815,281	1009,31
815,456	1439,38
815,631	1189,53
815,805	888,48
815,98	820,89
816,155	1167
816,33	1162,9
816,505	849,57
816,68	861,85
816,854	1091,23
817,029	1148,57
817,204	949,92
817,379	888,48
817,553	1220,25
817,728	1132,19
817,903	849,57
818,077	956,06
818,252	1353,37
818,427	1406,61
818,601	974,49
818,776	1048,22
818,95	1304,21
819,125	1623,7
819,299	1248,92
819,474	1150,62
819,648	1332,89
819,823	1668,75
819,997	1097,37
820,172	874,14
820,346	1355,41
820,521	1187,48
820,695	788,13
820,87	552,61
821,044	732,83
821,218	863,9
821,393	796,32
821,567	513,7
821,741	892,57
821,916	990,88
822,09	968,35
822,264	798,37
822,438	874,14
822,613	1052,31
822,787	1027,74
822,961	947,87
823,135	1513,11
823,309	1330,84
823,483	1007,26
823,658	939,68
823,832	1420,95
824,006	1021,6
824,18	808,61
824,354	890,53
824,528	1210,01
824,702	1461,91
824,876	990,88
825,05	1033,88
825,224	1289,88
825,398	1160,86
825,572	798,37
825,746	728,74
825,92	1429,14
826,093	1003,16
826,267	818,85
826,441	820,89
826,615	1406,61
826,789	1220,25
826,963	827,04
827,136	771,74
827,31	976,54
827,484	857,76
827,658	620,19
827,831	718,5
828,005	1091,23
828,179	765,6
828,353	779,93
828,526	786,08
828,7	1195,67
828,873	837,28
829,047	841,37
829,221	710,3
829,394	1005,21
829,568	1058,46
829,741	677,54
829,915	652,96
830,088	1242,78
830,262	1400,47
830,435	650,91
830,609	804,51
830,782	1083,03
830,956	1181,34
831,129	913,05
831,302	712,35
831,476	947,87
831,649	775,84
831,822	736,93
831,996	689,82
832,169	1275,54
832,342	677,54
832,516	632,48
832,689	628,39
832,862	1121,95
833,035	1277,59
833,209	1087,13
833,382	874,14
833,555	861,85
833,728	935,58
833,901	644,77
834,074	816,8
834,247	964,25
834,42	1095,32
834,594	564,9
834,767	886,43
834,94	1126,04
835,113	1230,49
835,286	923,29
835,459	736,93
835,632	935,58
835,805	870,05
835,977	798,37
836,15	759,46
836,323	923,29
836,496	997,02
836,669	702,11
836,842	685,73
837,015	1320,6
837,188	972,44
837,36	804,51
837,533	796,32
837,706	960,16
837,879	1279,64
838,051	698,02
838,224	812,7
838,397	1017,5
838,569	947,87
838,742	616,1
838,915	759,46
839,087	1083,03
839,26	1044,12
839,433	628,39
839,605	781,98
839,778	609,95
839,95	1085,08
840,123	693,92
840,295	757,41
840,468	880,29
840,64	954,01
840,813	603,81
840,985	790,17
841,158	906,91
841,33	988,83
841,502	595,62
841,675	677,54
841,847	1046,17
842,019	960,16
842,192	583,33
842,364	575,14
842,536	962,2
842,709	927,39
842,881	620,19
843,053	698,02
843,225	779,93
843,398	1021,6
843,57	626,34
843,742	589,47
843,914	999,07
844,086	1173,14
844,258	491,17
844,43	612
844,602	1173,14
844,775	790,17
844,947	511,65
845,119	472,74
845,291	1087,13
845,463	1066,65
845,635	472,74
845,807	595,62
845,979	974,49
846,15	734,88
846,322	452,26
846,494	503,46
846,666	657,06
846,838	857,76
847,01	513,7
847,182	470,69
847,354	796,32
847,525	947,87
847,697	503,46
847,869	364,2
848,041	781,98
848,212	908,96
848,384	202,41
848,556	487,08
848,727	917,15
848,899	581,28
849,071	388,77
849,242	415,4
849,414	841,37
849,585	810,65
849,757	396,96
849,929	489,12
850,1	679,58
850,272	939,68
850,443	435,88
850,615	595,62
850,786	728,74
850,958	577,19
851,129	460,45
851,3	364,2
851,472	743,07
851,643	698,02
851,815	493,22
851,986	409,25
852,157	741,02
852,329	1017,5
852,5	83,63
852,671	593,57
852,842	566,95
853,014	482,98
853,185	280,23
853,356	366,25
853,527	771,74
853,698	794,27
853,87	513,7
854,041	550,56
854,212	634,53
854,383	747,17
854,554	300,71
854,725	302,76
854,896	642,72
855,067	640,67
855,238	290,47
855,409	339,62
855,58	493,22
855,751	927,39
855,922	362,15
856,093	1103,51
856,264	274,09
856,435	525,99
856,606	249,51
856,777	315,05
856,948	562,85
857,118	427,68
857,289	337,57
857,46	515,75
857,631	698,02
857,802	626,34
857,972	296,61
858,143	401,06
858,314	370,34
858,484	360,1
858,655	153,26
858,826	304,81
858,996	521,89
859,167	718,5
859,338	128,68
859,508	321,19
859,679	587,43
859,849	470,69
860,02	161,45
860,19	220,84
860,361	745,12
860,531	382,63
860,702	202,41
860,872	456,36
861,043	356,01
861,213	616,1
861,384	159,4
861,554	251,56
861,724	192,17
861,895	532,13
862,065	386,72
862,235	190,12
862,406	532,13
862,576	419,49
862,746	132,78
862,916	247,46
863,087	712,35
863,257	487,08
863,427	194,22
863,597	257,7
863,767	695,97
863,937	128,68
864,108	249,51
864,278	300,71
864,448	693,92
864,618	573,09
864,788	-26,96
864,958	216,74
865,128	313
865,298	315,05
865,468	87,72
865,638	-49,49
865,808	415,4
865,978	896,67
866,148	118,44
866,318	112,3
866,487	552,61
866,657	460,45
866,827	226,98
866,997	65,19
867,167	591,52
867,337	452,26
867,506	116,39
867,676	153,26
867,846	282,28
868,016	552,61
868,185	-49,49
868,355	120,49
868,525	468,64
868,694	358,05
868,864	77,48
869,034	186,02
869,203	384,68
869,373	374,44
869,542	143,02
869,712	79,53
869,881	546,47
870,051	327,33
870,22	32,43
870,39	102,06
870,559	288,42
870,729	-104,79
870,898	171,69
871,068	42,67
871,237	282,28
871,406	177,83
871,576	30,38
871,745	122,54
871,914	202,41
872,084	259,75
872,253	46,76
872,422	13,99
872,591	511,65
872,761	79,53
872,93	243,37
873,099	32,43
873,268	235,18
873,437	165,54
873,607	5,8
873,776	71,34
873,945	315,05
874,114	190,12
874,283	-8,53
874,452	296,61
874,621	464,55
874,79	460,45
874,959	44,71
875,128	102,06
875,297	349,86
875,466	601,76
875,635	79,53
875,804	16,04
875,973	26,28
876,142	536,23
876,31	-22,87
876,479	-4,44
876,648	325,29
876,817	110,25
876,986	-55,64
877,155	155,3
877,323	126,63
877,492	583,33
877,661	3,75
877,829	167,59
877,998	233,13
878,167	296,61
878,335	-82,26
878,504	-41,3
878,673	173,74
878,841	91,82
879,01	79,53
879,178	-26,96
879,347	276,13
879,515	224,94
879,684	206,5
879,852	-12,63
880,021	190,12
880,189	329,38
880,358	22,19
880,526	235,18
880,695	54,95
880,863	384,68
881,031	3,75
881,2	-145,75
881,368	16,04
881,536	669,34
881,705	-84,31
881,873	54,95
882,041	341,67
882,21	286,37
882,378	-74,07
882,546	-31,06
882,714	243,37
882,882	143,02
883,05	-41,3
883,219	-14,68
883,387	128,68
883,555	200,36
883,723	-145,75
883,891	-31,06
884,059	-51,54
884,227	274,09
884,395	-51,54
884,563	-78,16
884,731	224,94
884,899	511,65
885,067	-8,53
885,235	9,9
885,403	315,05
885,571	415,4
885,739	-227,67
