Data from GlÂ¸hbirne_USB4F035431__0__12-14-20-453.txt Node

Date: Tue Feb 02 12:14:20 CET 2021
User: Praktikum
Spectrometer: USB4F03543
Trigger mode: 4
Integration Time (sec): 1,000000E-1
Scans to average: 1
Electric dark correction enabled: true
Nonlinearity correction enabled: false
Boxcar width: 0
XAxis mode: Wavelengths
Number of Pixels in Spectrum: 3648
>>>>>Begin Spectral Data<<<<<
179,969	-179,88
180,181	-179,88
180,394	-179,88
180,606	-177,83
180,819	-186,02
181,031	-30,38
181,243	74,07
181,456	-71,34
181,668	82,26
181,88	24,92
182,093	-7,85
182,305	-67,24
182,518	-28,33
182,73	10,58
182,942	4,44
183,155	0,34
183,367	8,53
183,579	0,34
183,791	84,31
184,004	104,79
184,216	26,96
184,428	35,16
184,641	14,68
184,853	31,06
185,065	61,78
185,277	43,35
185,49	141,65
185,702	10,58
185,914	82,26
186,126	-5,8
186,338	35,16
186,551	59,73
186,763	92,5
186,975	43,35
187,187	92,5
187,399	53,59
187,612	45,4
187,824	24,92
188,036	125,27
188,248	65,88
188,46	63,83
188,672	65,88
188,885	10,58
189,097	112,98
189,309	24,92
189,521	57,68
189,733	100,69
189,945	10,58
190,157	104,79
190,369	80,21
190,581	80,21
190,794	67,92
191,006	0,34
191,218	76,12
191,43	112,98
191,642	39,25
191,854	59,73
192,066	98,64
192,278	115,03
192,49	59,73
192,702	69,97
192,914	-24,23
193,126	26,96
193,338	39,25
193,55	108,88
193,762	10,58
193,974	49,49
194,186	-52,91
194,398	26,96
194,61	74,07
194,822	74,07
195,034	80,21
195,246	74,07
195,457	92,5
195,669	108,88
195,881	59,73
196,093	121,17
196,305	10,58
196,517	33,11
196,729	117,08
196,941	43,35
197,153	125,27
197,365	80,21
197,576	41,3
197,788	20,82
198	119,12
198,212	119,12
198,424	43,35
198,636	33,11
198,847	51,54
199,059	78,16
199,271	65,88
199,483	112,98
199,695	90,45
199,906	112,98
200,118	41,3
200,33	72,02
200,542	360,78
200,753	78,16
200,965	24,92
201,177	39,25
201,389	74,07
201,6	-50,86
201,812	12,63
202,024	43,35
202,235	-22,19
202,447	67,92
202,659	67,92
202,871	55,64
203,082	59,73
203,294	80,21
203,506	96,6
203,717	67,92
203,929	2,39
204,141	153,94
204,352	125,27
204,564	2,39
204,775	12,63
204,987	76,12
205,199	80,21
205,41	39,25
205,622	121,17
205,833	72,02
206,045	112,98
206,257	106,84
206,468	0,34
206,68	53,59
206,891	-5,8
207,103	-65,19
207,314	18,77
207,526	61,78
207,737	51,54
207,949	63,83
208,16	47,44
208,372	137,56
208,583	29,01
208,795	31,06
209,006	82,26
209,218	69,97
209,429	53,59
209,641	110,93
209,852	51,54
210,064	137,56
210,275	43,35
210,487	115,03
210,698	51,54
210,909	106,84
211,121	65,88
211,332	155,99
211,544	164,18
211,755	43,35
211,966	80,21
212,178	-5,8
212,389	180,56
212,6	86,36
212,812	108,88
213,023	2,39
213,234	67,92
213,446	90,45
213,657	-18,09
213,868	76,12
214,08	151,89
214,291	82,26
214,502	106,84
214,714	43,35
214,925	65,88
215,136	18,77
215,347	18,77
215,559	92,5
215,77	26,96
215,981	166,23
216,192	76,12
216,404	74,07
216,615	41,3
216,826	166,23
217,037	6,49
217,249	43,35
217,46	127,32
217,671	129,36
217,882	18,77
218,093	104,79
218,304	94,55
218,516	115,03
218,727	51,54
218,938	78,16
219,149	166,23
219,36	76,12
219,571	117,08
219,782	8,53
219,993	90,45
220,205	-1,71
220,416	59,73
220,627	117,08
220,838	137,56
221,049	108,88
221,26	115,03
221,471	39,25
221,682	108,88
221,893	117,08
222,104	-34,47
222,315	45,4
222,526	41,3
222,737	63,83
222,948	51,54
223,159	35,16
223,37	90,45
223,581	47,44
223,792	84,31
224,003	43,35
224,214	61,78
224,425	98,64
224,636	43,35
224,847	92,5
225,058	108,88
225,269	65,88
225,48	78,16
225,691	51,54
225,902	104,79
226,112	88,4
226,323	0,34
226,534	100,69
226,745	76,12
226,956	10,58
227,167	65,88
227,378	47,44
227,589	33,11
227,799	145,75
228,01	65,88
228,221	82,26
228,432	65,88
228,643	-7,85
228,853	129,36
229,064	49,49
229,275	90,45
229,486	26,96
229,697	155,99
229,907	49,49
230,118	24,92
230,329	39,25
230,54	26,96
230,75	76,12
230,961	121,17
231,172	20,82
231,383	12,63
231,593	65,88
231,804	51,54
232,015	16,73
232,225	125,27
232,436	51,54
232,647	67,92
232,857	123,22
233,068	43,35
233,279	141,65
233,489	26,96
233,7	145,75
233,91	67,92
234,121	6,49
234,332	108,88
234,542	59,73
234,753	35,16
234,964	133,46
235,174	-24,23
235,385	137,56
235,595	57,68
235,806	141,65
236,016	72,02
236,227	72,02
236,437	43,35
236,648	100,69
236,858	108,88
237,069	84,31
237,279	108,88
237,49	80,21
237,7	106,84
237,911	96,6
238,121	18,77
238,332	65,88
238,542	119,12
238,753	110,93
238,963	10,58
239,174	57,68
239,384	98,64
239,595	67,92
239,805	10,58
240,015	125,27
240,226	88,4
240,436	82,26
240,647	117,08
240,857	57,68
241,067	65,88
241,278	131,41
241,488	55,64
241,698	16,73
241,909	100,69
242,119	98,64
242,329	74,07
242,54	41,3
242,75	69,97
242,96	67,92
243,171	65,88
243,381	65,88
243,591	90,45
243,801	108,88
244,012	84,31
244,222	29,01
244,432	55,64
244,642	26,96
244,853	57,68
245,063	39,25
245,273	141,65
245,483	203,09
245,694	67,92
245,904	26,96
246,114	100,69
246,324	63,83
246,534	47,44
246,744	92,5
246,955	49,49
247,165	37,2
247,375	190,8
247,585	69,97
247,795	53,59
248,005	127,32
248,215	162,13
248,425	104,79
248,636	182,61
248,846	35,16
249,056	59,73
249,266	98,64
249,476	96,6
249,686	67,92
249,896	88,4
250,106	26,96
250,316	67,92
250,526	123,22
250,736	43,35
250,946	135,51
251,156	115,03
251,366	76,12
251,576	57,68
251,786	121,17
251,996	-20,14
252,206	31,06
252,416	117,08
252,626	4,44
252,836	90,45
253,046	74,07
253,256	133,46
253,466	82,26
253,676	22,87
253,885	115,03
254,095	18,77
254,305	-16,04
254,515	55,64
254,725	18,77
254,935	59,73
255,145	131,41
255,355	0,34
255,564	41,3
255,774	92,5
255,984	96,6
256,194	14,68
256,404	86,36
256,614	115,03
256,823	170,32
257,033	117,08
257,243	123,22
257,453	53,59
257,662	74,07
257,872	110,93
258,082	112,98
258,292	78,16
258,501	172,37
258,711	260,43
258,921	178,51
259,131	18,77
259,34	24,92
259,55	-9,9
259,76	61,78
259,969	67,92
260,179	35,16
260,389	115,03
260,598	133,46
260,808	59,73
261,018	24,92
261,227	121,17
261,437	76,12
261,647	133,46
261,856	57,68
262,066	100,69
262,275	141,65
262,485	63,83
262,694	133,46
262,904	59,73
263,114	139,6
263,323	84,31
263,533	55,64
263,742	51,54
263,952	84,31
264,161	26,96
264,371	59,73
264,58	24,92
264,79	92,5
264,999	153,94
265,209	110,93
265,418	125,27
265,628	65,88
265,837	125,27
266,047	104,79
266,256	86,36
266,466	65,88
266,675	49,49
266,884	67,92
267,094	12,63
267,303	153,94
267,513	100,69
267,722	172,37
267,931	123,22
268,141	63,83
268,35	33,11
268,559	145,75
268,769	100,69
268,978	65,88
269,187	74,07
269,397	65,88
269,606	-1,71
269,815	88,4
270,025	129,36
270,234	92,5
270,443	33,11
270,653	72,02
270,862	41,3
271,071	125,27
271,28	43,35
271,49	72,02
271,699	51,54
271,908	67,92
272,117	74,07
272,327	14,68
272,536	96,6
272,745	59,73
272,954	18,77
273,163	18,77
273,372	151,89
273,582	39,25
273,791	51,54
274	6,49
274,209	84,31
274,418	100,69
274,627	121,17
274,836	76,12
275,046	55,64
275,255	108,88
275,464	78,16
275,673	135,51
275,882	129,36
276,091	76,12
276,3	65,88
276,509	55,64
276,718	94,55
276,927	57,68
277,136	90,45
277,345	65,88
277,554	86,36
277,763	172,37
277,972	22,87
278,181	90,45
278,39	84,31
278,599	78,16
278,808	76,12
279,017	123,22
279,226	-5,8
279,435	86,36
279,644	51,54
279,853	131,41
280,062	76,12
280,271	41,3
280,48	102,74
280,688	41,3
280,897	108,88
281,106	108,88
281,315	31,06
281,524	100,69
281,733	84,31
281,942	117,08
282,151	2,39
282,359	108,88
282,568	59,73
282,777	137,56
282,986	74,07
283,195	76,12
283,403	82,26
283,612	57,68
283,821	33,11
284,03	59,73
284,238	98,64
284,447	43,35
284,656	80,21
284,865	147,8
285,073	80,21
285,282	96,6
285,491	53,59
285,699	76,12
285,908	67,92
286,117	74,07
286,325	80,21
286,534	127,32
286,743	106,84
286,951	10,58
287,16	108,88
287,369	18,77
287,577	131,41
287,786	82,26
287,995	123,22
288,203	76,12
288,412	22,87
288,62	117,08
288,829	22,87
289,037	82,26
289,246	59,73
289,455	106,84
289,663	108,88
289,872	194,9
290,08	51,54
290,289	145,75
290,497	35,16
290,706	78,16
290,914	8,53
291,123	51,54
291,331	92,5
291,54	170,32
291,748	239,95
291,957	82,26
292,165	135,51
292,373	47,44
292,582	55,64
292,79	115,03
292,999	117,08
293,207	108,88
293,415	35,16
293,624	59,73
293,832	98,64
294,041	80,21
294,249	74,07
294,457	33,11
294,666	108,88
294,874	18,77
295,082	35,16
295,291	47,44
295,499	16,73
295,707	123,22
295,915	0,34
296,124	104,79
296,332	108,88
296,54	88,4
296,749	106,84
296,957	84,31
297,165	76,12
297,373	84,31
297,581	65,88
297,79	90,45
297,998	65,88
298,206	72,02
298,414	65,88
298,622	47,44
298,831	137,56
299,039	74,07
299,247	112,98
299,455	141,65
299,663	125,27
299,871	55,64
300,08	90,45
300,288	102,74
300,496	133,46
300,704	96,6
300,912	115,03
301,12	96,6
301,328	141,65
301,536	26,96
301,744	67,92
301,952	47,44
302,16	-5,8
302,368	98,64
302,576	106,84
302,784	119,12
302,992	8,53
303,2	39,25
303,408	49,49
303,616	41,3
303,824	141,65
304,032	170,32
304,24	115,03
304,448	80,21
304,656	33,11
304,864	237,91
305,072	80,21
305,28	63,83
305,488	133,46
305,696	125,27
305,904	80,21
306,111	14,68
306,319	90,45
306,527	104,79
306,735	188,75
306,943	170,32
307,151	127,32
307,359	59,73
307,566	170,32
307,774	74,07
307,982	35,16
308,19	55,64
308,398	92,5
308,605	100,69
308,813	88,4
309,021	67,92
309,229	51,54
309,436	90,45
309,644	188,75
309,852	80,21
310,06	129,36
310,267	86,36
310,475	178,51
310,683	207,19
310,89	63,83
311,098	98,64
311,306	108,88
311,513	108,88
311,721	63,83
311,929	190,8
312,136	127,32
312,344	108,88
312,552	110,93
312,759	115,03
312,967	137,56
313,174	80,21
313,382	149,84
313,589	149,84
313,797	108,88
314,005	129,36
314,212	215,38
314,42	24,92
314,627	100,69
314,835	90,45
315,042	84,31
315,25	88,4
315,457	137,56
315,665	90,45
315,872	168,27
316,08	198,99
316,287	31,06
316,495	391,5
316,702	108,88
316,909	76,12
317,117	115,03
317,324	131,41
317,532	166,23
317,739	123,22
317,946	190,8
318,154	69,97
318,361	125,27
318,569	125,27
318,776	127,32
318,983	125,27
319,191	145,75
319,398	141,65
319,605	139,6
319,813	227,67
320,02	112,98
320,227	198,99
320,434	158,03
320,642	121,17
320,849	198,99
321,056	153,94
321,264	184,66
321,471	131,41
321,678	155,99
321,885	149,84
322,092	205,14
322,3	166,23
322,507	217,43
322,714	190,8
322,921	137,56
323,128	69,97
323,336	182,61
323,543	188,75
323,75	239,95
323,957	219,47
324,164	155,99
324,371	164,18
324,578	145,75
324,786	319,82
324,993	155,99
325,2	211,28
325,407	67,92
325,614	170,32
325,821	254,29
326,028	309,58
326,235	164,18
326,442	289,1
326,649	137,56
326,856	227,67
327,063	158,03
327,27	155,99
327,477	213,33
327,684	211,28
327,891	256,34
328,098	313,68
328,305	293,2
328,512	184,66
328,719	248,15
328,926	354,64
329,133	248,15
329,34	287,06
329,546	178,51
329,753	137,56
329,96	244,05
330,167	287,06
330,374	262,48
330,581	291,15
330,788	182,61
330,995	276,82
331,201	254,29
331,408	231,76
331,615	239,95
331,822	178,51
332,029	293,2
332,235	229,71
332,442	229,71
332,649	309,58
332,856	227,67
333,062	250,19
333,269	305,49
333,476	330,06
333,683	321,87
333,889	270,67
334,096	280,91
334,303	309,58
334,509	272,72
334,716	379,22
334,923	395,6
335,129	280,91
335,336	358,74
335,543	321,87
335,749	338,26
335,956	371,02
336,163	233,81
336,369	352,59
336,576	278,87
336,782	344,4
336,989	289,1
337,196	375,12
337,402	221,52
337,609	295,25
337,815	325,97
338,022	330,06
338,228	313,68
338,435	401,74
338,641	334,16
338,848	432,46
339,054	371,02
339,261	262,48
339,467	285,01
339,674	332,11
339,88	407,89
340,087	371,02
340,293	434,51
340,5	354,64
340,706	395,6
340,912	303,44
341,119	301,39
341,325	371,02
341,532	289,1
341,738	407,89
341,944	430,41
342,151	475,47
342,357	428,37
342,563	477,52
342,77	428,37
342,976	346,45
343,182	485,71
343,389	395,6
343,595	475,47
343,801	366,93
344,007	416,08
344,214	407,89
344,42	401,74
344,626	403,79
344,832	330,06
345,039	360,78
345,245	475,47
345,451	420,17
345,657	516,43
345,864	399,7
346,07	485,71
346,276	514,38
346,482	510,29
346,688	536,91
346,894	485,71
347,1	530,77
347,307	473,42
347,513	477,52
347,719	399,7
347,925	506,19
348,131	518,48
348,337	549,2
348,543	450,89
348,749	407,89
348,955	584,01
349,161	459,09
349,367	549,2
349,573	504,14
349,779	592,2
349,985	485,71
350,191	551,24
350,397	579,92
350,603	641,36
350,809	500,05
351,015	528,72
351,221	567,63
351,427	606,54
351,633	579,92
351,839	631,12
352,045	614,73
352,251	696,65
352,457	672,08
352,663	674,12
352,869	577,87
353,075	604,49
353,28	604,49
353,486	600,4
353,692	633,16
353,898	502,09
354,104	624,97
354,31	657,74
354,515	592,2
354,721	684,36
354,927	620,88
355,133	637,26
355,339	764,23
355,544	672,08
355,75	657,74
355,956	725,32
356,162	680,27
356,367	622,92
356,573	674,12
356,779	641,36
356,984	631,12
357,19	805,19
357,396	764,23
357,602	743,75
357,807	753,99
358,013	737,61
358,218	747,85
358,424	690,51
358,63	719,18
358,835	837,96
359,041	692,55
359,247	770,38
359,452	713,03
359,658	815,43
359,863	797
360,069	727,37
360,274	797
360,48	874,82
360,685	797
360,891	821,58
361,097	794,95
361,302	776,52
361,508	893,26
361,713	848,2
361,918	874,82
362,124	868,68
362,329	797
362,535	932,17
362,74	923,98
362,946	905,54
363,151	893,26
363,357	876,87
363,562	887,11
363,767	862,54
363,973	962,89
364,178	813,38
364,383	926,02
364,589	960,84
364,794	962,89
365	862,54
365,205	971,08
365,41	903,5
365,615	1018,18
365,821	991,56
366,026	981,32
366,231	966,98
366,437	977,22
366,642	1028,42
366,847	1048,9
367,052	1071,43
367,258	993,61
367,463	1022,28
367,668	1014,09
367,873	1059,14
368,078	987,46
368,284	1009,99
368,489	1061,19
368,694	1118,53
368,899	1200,45
369,104	1065,29
369,309	1087,81
369,515	1001,8
369,72	1083,72
369,925	1098,05
370,13	1122,63
370,335	1253,7
370,54	1134,92
370,745	1186,12
370,95	1153,35
371,155	1212,74
371,36	1108,29
371,565	1214,79
371,77	1229,12
371,975	1057,09
372,18	1290,56
372,385	1198,4
372,59	1124,68
372,795	1282,37
373	1190,21
373,205	1128,77
373,41	1173,83
373,615	1263,94
373,82	1100,1
374,025	1179,97
374,23	1159,49
374,435	1200,45
374,64	1214,79
374,845	1220,93
375,05	1132,87
375,254	1272,13
375,459	1278,27
375,664	1231,17
375,869	1206,59
376,074	1188,16
376,279	1251,65
376,483	1261,89
376,688	1149,25
376,893	1341,76
377,098	1169,73
377,303	1296,71
377,507	1296,71
377,712	1452,35
377,917	1354,05
378,122	1395,01
378,326	1358,14
378,531	1321,28
378,736	1329,47
378,94	1321,28
379,145	1306,95
379,35	1337,66
379,554	1349,95
379,759	1343,81
379,964	1399,1
380,168	1356,1
380,373	1354,05
380,578	1380,67
380,782	1442,11
380,987	1401,15
381,191	1395,01
381,396	1362,24
381,601	1462,59
381,805	1356,1
382,01	1425,73
382,214	1485,12
382,419	1448,26
382,623	1493,31
382,828	1392,96
383,032	1421,63
383,237	1372,48
383,441	1382,72
383,646	1474,88
383,85	1485,12
384,055	1542,46
384,259	1505,6
384,464	1411,39
384,668	1444,16
384,872	1528,13
385,077	1481,02
385,281	1585,47
385,486	1505,6
385,69	1550,65
385,894	1665,34
386,099	1540,41
386,303	1640,76
386,507	1638,72
386,712	1718,59
386,916	1558,85
387,12	1567,04
387,325	1767,74
387,529	1669,44
387,733	1632,57
387,937	1689,92
388,142	1630,52
388,346	1696,06
388,55	1651
388,754	1681,72
388,959	1663,29
389,163	1728,83
389,367	1796,41
389,571	1616,19
389,775	1792,31
389,98	1706,3
390,184	1681,72
390,388	1833,27
390,592	1726,78
390,796	1720,64
391	1696,06
391,204	1794,36
391,409	1825,08
391,613	1734,97
391,817	1827,13
392,021	1886,52
392,225	1698,11
392,429	1868,09
392,633	1898,81
392,837	1923,38
393,041	1911,1
393,245	1911,1
393,449	1876,28
393,653	1800,51
393,857	1866,04
394,061	2113,85
394,265	1933,62
394,469	1984,82
394,673	1993,01
394,877	1984,82
395,081	2160,95
395,285	2124,08
395,489	1937,72
395,693	2138,42
395,896	2136,37
396,1	2103,61
396,304	2156,85
396,508	2070,84
396,712	2107,7
396,916	1960,25
397,12	2206
397,323	2218,29
397,527	2230,58
397,731	2152,76
397,935	2038,07
398,139	2097,46
398,342	2087,22
398,546	2255,15
398,75	2220,34
398,954	2341,17
399,157	2097,46
399,361	2257,2
399,565	2099,51
399,769	2363,7
399,972	2394,42
400,176	2326,83
400,38	2269,49
400,583	2345,27
400,787	2402,61
400,991	2320,69
401,194	2380,08
401,398	2386,22
401,601	2345,27
401,805	2337,07
402,009	2353,46
402,212	2357,55
402,416	2451,76
402,619	2412,85
402,823	2568,49
403,026	2543,92
403,23	2343,22
403,433	2511,15
403,637	2386,22
403,841	2410,8
404,044	2613,55
404,247	2474,29
404,451	2621,74
404,654	2492,72
404,858	2517,29
405,061	2558,25
405,265	2685,23
405,468	2777,39
405,672	2629,93
405,875	2656,56
406,078	2664,75
406,282	2779,43
406,485	2631,98
406,689	2732,33
406,892	2875,69
407,095	2623,79
407,299	2586,93
407,502	2660,65
407,705	2742,57
407,909	2842,92
408,112	2783,53
408,315	2904,36
408,518	2951,46
408,722	2767,15
408,925	2779,43
409,128	2951,46
409,331	3049,77
409,535	2967,85
409,738	3033,38
409,941	3047,72
410,144	2947,37
410,347	3033,38
410,551	2967,85
410,754	3066,15
410,957	3017
411,16	3068,2
411,363	2949,42
411,566	2998,57
411,769	3082,53
411,973	3135,78
412,176	3195,17
412,379	3264,8
412,582	3164,45
412,785	3172,64
412,988	3221,8
413,191	3072,29
413,394	3131,69
413,597	3297,57
413,8	3258,66
414,003	3399,97
414,206	3100,97
414,409	3356,96
414,612	3180,84
414,815	3328,29
415,018	3465,5
415,221	3334,43
415,424	3184,93
415,627	3381,54
415,83	3256,61
416,033	3385,63
416,235	3385,63
416,438	3500,32
416,641	3311,91
416,844	3393,83
417,047	3465,5
417,25	3295,52
417,453	3524,9
417,655	3442,98
417,858	3481,89
418,061	3442,98
418,264	3342,63
418,467	3541,28
418,669	3428,64
418,872	3680,54
419,075	3549,47
419,278	3610,91
419,48	3623,2
419,683	3653,92
419,886	3531,04
420,089	3705,12
420,291	3694,88
420,494	3733,79
420,697	3565,85
420,899	3754,27
421,102	3483,94
421,305	3844,38
421,507	3670,3
421,71	3696,92
421,912	3762,46
422,115	3858,71
422,318	3729,69
422,52	3850,52
422,723	3762,46
422,925	3905,82
423,128	3827,99
423,33	3762,46
423,533	3713,31
423,735	3866,91
423,938	3952,92
424,14	3967,26
424,343	3825,95
424,545	3987,74
424,748	3924,25
424,95	3889,43
425,153	4016,41
425,355	4237,59
425,558	4204,82
425,76	4045,08
425,962	3875,1
426,165	3948,83
426,367	4239,64
426,57	4311,32
426,772	4210,97
426,974	4215,06
427,177	4114,71
427,379	4147,48
427,581	4161,81
427,784	4284,69
427,986	3897,63
428,188	4479,25
428,39	4440,34
428,593	4258,07
428,795	4462,87
428,997	4579,6
429,2	4333,84
429,402	4581,65
429,604	4491,54
429,806	4391,19
430,008	4460,82
430,211	4600,08
430,413	4552,98
430,615	4581,65
430,817	4573,46
431,019	4579,6
431,221	4534,54
431,423	4450,58
431,626	4612,37
431,828	4612,37
432,03	4671,76
432,232	4778,25
432,434	4716,81
432,636	4868,36
432,838	4548,88
433,04	4759,82
433,242	4925,71
433,444	4682
433,646	4825,36
433,848	4890,89
434,05	5015,82
434,252	4753,68
434,454	4765,96
434,656	4819,21
434,858	5122,31
435,06	4909,32
435,262	5095,69
435,464	5146,89
435,666	5243,14
435,868	5218,57
436,07	5230,85
436,271	5374,21
436,473	5253,38
436,675	5292,29
436,877	5060,87
437,079	5013,77
437,281	5237
437,482	5499,14
437,684	5421,31
437,886	5298,44
438,088	5286,15
438,29	5439,75
438,491	5480,71
438,693	5255,43
438,895	5349,64
439,097	5931,26
439,298	5443,84
439,5	5525,76
439,702	5515,52
439,903	5458,18
440,105	5513,47
440,307	5734,65
440,508	5734,65
440,71	5783,81
440,912	5767,42
441,113	5589,25
441,315	5669,12
441,517	5765,37
441,718	5794,04
441,92	5777,66
442,121	5662,97
442,323	6013,18
442,524	5972,22
442,726	6062,33
442,928	5777,66
443,129	5972,22
443,331	5767,42
443,532	5828,86
443,734	6070,52
443,935	6152,44
444,136	5753,09
444,338	5964,03
444,539	5982,46
444,741	6166,78
444,942	5832,96
445,144	5998,84
445,345	6342,9
445,546	5996,79
445,748	5998,84
445,949	6004,99
446,151	5851,39
446,352	6191,35
446,553	6162,68
446,755	6007,03
446,956	6117,62
447,157	6316,28
447,359	6111,48
447,56	6293,75
447,761	6113,53
447,962	6310,13
448,164	6381,81
448,365	6019,32
448,566	6357,24
448,767	6316,28
448,969	6408,44
449,17	6308,09
449,371	6158,58
449,572	6299,89
449,773	6377,72
449,974	6629,62
450,176	6676,72
450,377	6693,1
450,578	6758,64
450,779	6385,91
450,98	6199,54
451,181	6490,35
451,382	6451,44
451,583	6617,33
451,784	6680,82
451,986	7092,46
452,187	6473,97
452,388	6547,7
452,589	6480,11
452,79	6818,03
452,991	6564,08
453,192	6834,41
453,393	6762,73
453,594	7166,18
453,795	6605,04
453,995	6781,17
454,196	6711,53
454,397	6922,48
454,598	6744,3
454,799	7194,86
455	7219,43
455,201	7033,07
455,402	7063,79
455,603	6834,41
455,804	7538,91
456,004	7526,63
456,205	7143,66
456,406	7078,12
456,607	7137,51
456,808	7469,28
457,008	7194,86
457,209	7037,16
457,41	8001,76
457,611	7198,95
457,811	7586,02
458,012	7557,35
458,213	7669,98
458,414	7602,4
458,614	7674,08
458,815	7684,32
459,016	7727,33
459,216	7973,08
459,417	7842,01
459,618	7989,47
459,818	7913,69
460,019	7727,33
460,22	7880,93
460,42	7946,46
460,621	7794,91
460,821	8063,19
461,022	8118,49
461,223	7887,07
461,423	8184,02
461,624	8327,38
461,824	8575,19
462,025	8061,15
462,225	8351,96
462,426	8845,52
462,626	8726,74
462,827	8585,43
463,027	8505,56
463,228	8653,01
463,428	8423,64
463,628	8665,3
463,829	9144,52
464,029	8569,04
464,23	9062,6
464,43	8765,65
464,63	9025,74
464,831	8816,85
465,031	9248,97
465,231	9416,9
465,432	9367,75
465,632	9683,14
465,832	8984,78
466,033	9676,99
466,233	9322,7
466,433	9484,48
466,634	9664,71
466,834	9918,65
467,034	9687,23
467,234	10256,57
467,435	10035,39
467,635	10420,41
467,835	9543,88
468,035	10248,38
468,235	9971,9
468,436	10041,53
468,636	10215,61
468,836	10088,64
469,036	10834,1
469,236	10373,3
469,436	10617,01
469,636	10815,66
469,836	10727,6
470,037	10959,02
470,237	10946,73
470,437	10969,26
470,637	10959,02
470,837	10979,5
471,037	11356,33
471,237	11460,77
471,437	11471,01
471,637	11831,46
471,837	11964,57
472,037	11522,21
472,237	11978,91
472,437	12308,63
472,637	12423,32
472,837	12173,47
473,036	11933,86
473,236	12392,6
473,436	12335,26
473,636	12896,4
473,836	12585,11
474,036	12966,03
474,236	13205,64
474,436	13351,05
474,635	13082,77
474,835	13203,6
475,035	13938,82
475,235	14207,1
475,435	14059,65
475,634	13967,49
475,834	14749,81
476,034	14377,08
476,234	14317,69
476,433	14680,18
476,633	14784,63
476,833	15138,93
477,033	15048,82
477,232	15319,15
477,432	14977,14
477,632	15427,69
477,831	15464,55
478,031	15607,91
478,231	16064,61
478,43	15913,06
478,63	16273,5
478,829	16199,77
479,029	16560,22
479,229	16722,01
479,428	17039,44
479,628	17227,85
479,827	17127,5
480,027	17168,46
480,226	17320,01
480,426	17856,58
480,625	17541,19
480,825	18233,41
481,024	18151,49
481,224	18477,12
481,423	18278,46
481,623	18722,87
481,822	18905,14
482,021	18896,95
482,221	19265,58
482,42	19390,51
482,62	19693,61
482,819	19656,75
483,018	19742,76
483,218	19718,18
483,417	20017,19
483,616	20084,77
483,816	20424,73
484,015	20555,8
484,214	20488,22
484,414	20815,9
484,613	20693,02
484,812	20918,29
485,011	21338,13
485,211	21020,69
485,41	21440,53
485,609	21483,53
485,808	21448,72
486,008	22261,76
486,207	21485,58
486,406	22030,34
486,605	21782,54
486,804	22304,77
487,003	22462,46
487,203	22665,21
487,402	22280,19
487,601	22761,47
487,8	22865,91
487,999	22865,91
488,198	23039,99
488,397	23173,11
488,596	23199,73
488,795	23279,6
488,994	23541,74
489,193	23676,91
489,392	23838,7
489,591	23887,85
489,79	24072,17
489,989	24201,19
490,188	24127,46
490,387	24149,99
490,586	23963,62
490,785	24725,47
490,984	24594,4
491,183	24500,19
491,382	24299,49
491,581	25006,04
491,779	24815,58
491,978	25114,58
492,177	25186,26
492,376	25083,86
492,575	25475,02
492,774	25300,95
492,972	25622,48
493,171	25634,77
493,37	25548,75
493,569	26019,78
493,768	25972,68
493,966	25960,39
494,165	26193,86
494,364	26372,03
494,563	25866,19
494,761	26396,61
494,96	26320,84
495,159	26437,57
495,357	26288,07
495,556	26462,15
495,755	26206,15
495,953	26791,87
496,152	26421,19
496,35	26632,13
496,549	26933,18
496,748	26650,56
496,946	27066,3
497,145	26857,4
497,343	27045,82
497,542	27051,96
497,74	26765,24
497,939	27506,61
498,137	27471,79
498,336	27170,74
498,534	27015,1
498,733	27264,95
498,931	27447,22
499,13	27482,03
499,328	27385,78
499,527	27883,44
499,725	27221,94
499,924	27416,5
500,122	27125,69
500,32	27641,78
500,519	27463,6
500,717	27455,41
500,915	27774,89
501,114	27756,46
501,312	27858,86
501,51	28235,69
501,709	27903,92
501,907	27930,54
502,105	27887,53
502,304	28299,17
502,502	27680,69
502,7	28252,07
502,898	28166,06
503,097	28458,92
503,295	28463,01
503,493	28565,41
503,691	28456,87
503,889	28585,89
504,088	28407,72
504,286	28819,36
504,484	28737,44
504,682	28872,6
504,88	28575,65
505,078	29036,44
505,276	28776,35
505,474	28915,61
505,672	28809,12
505,871	29288,34
506,069	29198,23
506,267	29417,36
506,465	29056,92
506,663	29413,27
506,861	29173,66
507,059	29278,1
507,257	29499,28
507,455	30025,61
507,653	29613,97
507,851	30009,23
508,049	29501,33
508,246	30211,98
508,444	29749,14
508,642	30148,49
508,84	29964,17
509,038	30412,68
509,236	30424,97
509,434	30226,31
509,632	30578,56
509,829	30762,88
510,027	30453,64
510,225	30701,44
510,423	31432,57
510,621	30820,22
510,818	31104,89
511,016	31010,68
511,214	31377,27
511,412	31616,88
511,609	31274,87
511,807	32001,9
512,005	31467,38
512,203	32120,68
512,4	31922,03
512,598	32241,51
512,796	32229,23
512,993	32644,96
513,191	32655,2
513,389	32554,85
513,586	32878,43
513,784	32880,48
513,981	32943,97
514,179	33007,45
514,377	33017,69
514,574	33066,84
514,772	33615,7
514,969	33849,17
515,167	33668,95
515,364	34234,19
515,562	34127,69
515,759	34221,9
515,957	33955,66
516,154	34674,5
516,352	34506,57
516,549	34656,07
516,746	34660,16
516,944	35190,59
517,141	35241,79
517,339	35241,79
517,536	35053,37
517,733	35295,03
517,931	35721,01
518,128	35872,56
518,325	35837,75
518,523	35725,11
518,72	36040,5
518,917	36808,48
519,115	36237,1
519,312	36775,72
519,509	36667,17
519,707	36949,79
519,904	37138,21
520,101	37170,97
520,298	36978,47
520,495	37263,13
520,693	36910,88
520,89	37439,26
521,087	37113,63
521,284	37902,1
521,481	38055,7
521,678	38115,09
521,876	37934,87
522,073	38321,93
522,27	38014,74
522,467	38027,03
522,664	38377,23
522,861	38907,65
523,058	38741,77
523,255	38569,74
523,452	39096,06
523,649	39081,73
523,846	38825,73
524,043	39227,13
524,24	39649,02
524,437	38891,27
524,634	39569,15
524,831	39976,69
525,028	40097,52
525,225	39671,54
525,422	39458,56
525,619	40097,52
525,816	39452,41
526,013	40656,62
526,209	39948,02
526,406	40140,53
526,603	40167,15
526,8	40191,73
526,997	40040,18
527,194	40462,06
527,39	40204,02
527,587	40414,96
527,784	40603,37
527,981	40460,01
528,177	40595,18
528,374	41006,82
528,571	40521,45
528,768	41027,3
528,964	41242,34
529,161	41135,84
529,358	41199,33
529,554	41000,68
529,751	41217,76
529,948	41754,33
530,144	41008,87
530,341	41508,57
530,537	41340,64
530,734	41694,94
530,931	41209,57
531,127	41879,25
531,324	41963,22
531,52	41823,96
531,717	41881,3
531,913	41942,74
532,11	41983,7
532,306	42284,75
532,503	42327,76
532,699	42000,08
532,896	42096,34
533,092	42389,2
533,289	42841,8
533,485	42692,3
533,682	42428,11
533,878	42643,15
534,074	42131,15
534,271	42663,63
534,467	42487,5
534,664	42684,11
534,86	42720,97
535,056	43183,81
535,253	42774,22
535,449	43333,31
535,645	43275,97
535,841	43589,31
536,038	42802,89
536,234	42798,79
536,43	43364,03
536,626	43241,15
536,823	42790,6
537,019	43052,74
537,215	43435,71
537,411	43214,53
537,607	43192
537,804	43974,33
538	43394,75
538,196	43204,29
538,392	43808,44
538,588	43282,11
538,784	43843,26
538,98	43540,16
539,176	43822,78
539,373	44328,62
539,569	44052,15
539,765	43908,79
539,961	44912,3
540,157	44213,94
540,353	44179,12
540,549	44289,71
540,745	44068,53
540,941	44211,89
541,137	43779,77
541,333	44431,02
541,528	44281,52
541,724	44046,01
541,92	44314,29
542,116	44539,57
542,312	44168,88
542,508	44543,66
542,704	44932,78
542,9	44306,1
543,096	44390,06
543,291	44801,71
543,487	45063,85
543,683	45350,56
543,879	45063,85
544,075	44715,69
544,27	45100,71
544,466	45151,91
544,662	45227,68
544,858	45373,09
545,053	45371,04
545,249	45391,52
545,445	44836,52
545,64	44895,91
545,836	45315,75
546,032	45067,94
546,227	45123,24
546,423	45072,04
546,619	44895,91
546,814	45809,31
547,01	45395,62
547,205	45837,98
547,401	44752,55
547,597	45698,72
547,792	45412
547,988	45702,81
548,183	45088,42
548,379	45958,81
548,574	45700,76
548,77	45809,31
548,965	45592,22
549,161	45602,46
549,356	45631,13
549,552	46091,93
549,747	45657,76
549,942	45690,52
550,138	46108,31
550,333	45409,95
550,529	46241,43
550,724	46229,14
550,919	45991,58
551,115	46522
551,31	46280,34
551,505	46741,13
551,701	46390,93
551,896	46485,14
552,091	46296,72
552,287	46503,57
552,482	46261,91
552,677	46462,61
552,872	45919,9
553,067	46128,79
553,263	46108,31
553,458	46800,52
553,653	45866,65
553,848	47007,37
554,043	46122,65
554,239	46644,88
554,434	46280,34
554,629	46755,47
554,824	46186,13
555,019	46075,54
555,214	46325,39
555,409	46685,84
555,604	46493,33
555,799	46608,01
555,994	46565,01
556,189	46214,8
556,384	46724,75
556,579	47013,51
556,774	46462,61
556,969	47087,24
557,164	46929,55
557,359	46851,72
557,554	46755,47
557,749	46915,21
557,944	46935,69
558,139	46771,85
558,334	46737,04
558,529	47148,68
558,724	46585,49
558,918	46685,84
559,113	46919,31
559,308	47007,37
559,503	46804,62
559,698	47453,83
559,893	46689,93
560,087	47009,42
560,282	46911,11
560,477	46763,66
560,672	46673,55
560,866	46743,18
561,061	46667,41
561,256	47386,24
561,45	47314,56
561,645	47439,49
561,84	47070,86
562,034	47271,56
562,229	46755,47
562,424	47695,49
562,618	47453,83
562,813	47502,98
563,008	46821
563,202	47337,09
563,397	47064,71
563,591	47142,53
563,786	47337,09
563,98	47781,5
564,175	47525,5
564,369	47599,23
564,564	47365,76
564,758	47834,75
564,953	47369,86
565,147	47376
565,342	47347,33
565,536	47785,6
565,731	47240,84
565,925	47789,69
566,119	47713,92
566,314	47586,94
566,508	47734,4
566,703	48172,66
566,897	47935,1
567,091	48283,25
567,286	47545,98
567,48	48287,35
567,674	48043,64
567,868	48262,77
568,063	47689,34
568,257	48959,08
568,451	47894,14
568,646	47873,66
568,84	47853,18
569,034	48182,9
569,228	47912,57
569,422	48336,5
569,616	47713,92
569,811	47920,76
570,005	47738,49
570,199	48750,19
570,393	48299,64
570,587	48273,01
570,781	48137,85
570,975	48117,37
571,169	48006,78
571,364	48655,98
571,558	47926,91
571,752	48451,19
571,946	48438,9
572,14	49075,82
572,334	48516,72
572,528	48866,92
572,722	48264,82
572,916	48559,73
573,109	48397,94
573,303	48967,27
573,497	48737,9
573,691	48991,85
573,885	48397,94
574,079	49346,15
574,273	49075,82
574,467	48942,7
574,661	48739,95
574,854	49167,98
575,048	49462,88
575,242	48893,55
575,436	49206,89
575,63	49436,26
575,823	49094,25
576,017	49141,35
576,211	48946,79
576,405	49608,29
576,598	48541,3
576,792	49587,81
576,986	48877,16
577,18	48776,81
577,373	49137,26
577,567	49739,36
577,761	49759,84
577,954	49880,67
578,148	49608,29
578,341	50200,15
578,535	49946,2
578,729	50361,94
578,922	49507,94
579,116	50097,75
579,309	49190,5
579,503	49895
579,696	49737,31
579,89	50556,5
580,083	50058,84
580,277	50222,68
580,47	49653,34
580,664	50021,98
580,857	50454,1
581,051	49794,65
581,244	49952,35
581,437	50237,01
581,631	49825,37
581,824	50105,94
582,018	50189,91
582,211	50562,64
582,404	50456,15
582,598	50118,23
582,791	50757,2
582,984	50138,71
583,178	51304,01
583,371	51007,05
583,564	50284,12
583,757	50495,06
583,951	50589,27
584,144	51011,15
584,337	50404,95
584,53	51476,04
584,723	50544,21
584,917	51109,45
585,11	50237,01
585,303	51834,43
585,496	50568,79
585,689	50925,13
585,882	51150,41
586,075	51078,73
586,268	50781,77
586,462	51015,24
586,655	50581,07
586,848	51969,6
587,041	51418,69
587,234	51521,09
587,427	50916,94
587,62	51654,21
587,813	51222,09
588,006	51568,19
588,199	51318,34
588,392	52063,8
588,585	51547,71
588,777	51646,02
588,97	51330,63
589,163	51727,94
589,356	52112,95
589,549	51945,02
589,742	51508,8
589,935	51736,13
590,128	51592,77
590,32	52112,95
590,513	51424,84
590,706	52010,56
590,899	51697,22
591,092	51904,06
591,284	51875,39
591,477	52600,37
591,67	52407,86
591,863	52278,84
592,055	52270,65
592,248	51895,87
592,441	51940,92
592,633	52557,36
592,826	52203,06
593,019	52379,19
593,211	51985,98
593,404	52225,59
593,596	52289,08
593,789	52104,76
593,982	51916,35
594,174	52393,53
594,367	52002,36
594,559	52553,27
594,752	51793,47
594,944	52088,38
595,137	52295,22
595,329	52074,04
595,522	52491,83
595,714	52547,12
595,907	52620,85
596,099	52368,95
596,292	51910,21
596,484	52686,39
596,676	51830,33
596,869	51879,49
597,061	52448,82
597,253	52424,25
597,446	52178,49
597,638	52743,73
597,83	52100,67
598,023	52721,2
598,215	52209,21
598,407	52223,54
598,6	52039,23
598,792	52629,04
598,984	52231,74
599,176	52141,63
599,369	52606,51
599,561	53110,31
599,753	52489,78
599,945	52878,89
600,137	52311,61
600,329	52702,77
600,522	52014,65
600,714	52975,15
600,906	52592,18
601,098	52692,53
601,29	52493,88
601,482	52612,66
601,674	53030,44
601,866	52469,3
602,058	52383,29
602,25	52287,03
602,442	52262,46
602,634	52784,69
602,826	52399,67
603,018	52401,72
603,21	52786,74
603,402	52819,5
603,594	52227,64
603,786	53087,79
603,978	52708,91
604,17	52366,9
604,362	52921,9
604,554	52602,42
604,745	52801,07
604,937	53235,24
605,129	52710,96
605,321	52342,33
605,513	52743,73
605,704	52727,34
605,896	52104,76
606,088	52430,39
606,28	51977,79
606,471	52508,21
606,663	51959,36
606,855	52241,98
607,047	52616,75
607,238	52813,36
607,43	51707,46
607,622	52543,03
607,813	52031,04
608,005	52620,85
608,197	52074,04
608,388	52569,65
608,58	52170,3
608,771	52665,91
608,963	51899,97
609,154	51969,6
609,346	51615,3
609,537	52334,13
609,729	52104,76
609,921	52190,78
610,112	51842,62
610,303	52125,24
610,495	51217,99
610,686	51775,04
610,878	51779,14
611,069	51736,13
611,261	51512,9
611,452	51428,93
611,643	51162,7
611,835	51465,8
612,026	51293,77
612,217	51371,59
612,409	51056,2
612,6	51224,14
612,791	50609,75
612,983	50527,83
613,174	51441,22
613,365	51232,33
613,557	50931,28
613,748	51240,52
613,939	50419,28
614,13	51273,29
614,321	50564,69
614,513	51490,37
614,704	50536,02
614,895	50916,94
615,086	50318,93
615,277	51205,7
615,468	51048,01
615,659	51070,54
615,851	50597,46
616,042	51017,29
616,233	51261
616,424	51600,96
616,615	50835,02
616,806	50910,8
616,997	50941,52
617,188	51334,73
617,379	51863,1
617,57	51826,24
617,761	51263,05
617,952	51803,71
618,143	51729,98
618,334	51727,94
618,524	51682,88
618,715	52145,72
618,906	51803,71
619,097	51832,38
619,288	52581,94
619,479	52936,24
619,67	51981,88
619,86	52792,88
620,051	52678,19
620,242	53014,06
620,433	52702,77
620,624	53196,33
620,814	53685,79
621,005	53448,23
621,196	53351,98
621,386	53857,82
621,577	53919,26
621,768	54091,29
621,958	54236,7
622,149	54509,08
622,34	54361,62
622,53	54433,3
622,721	54525,46
622,912	55150,09
623,102	54963,73
623,293	55506,44
623,483	55668,23
623,674	55416,33
623,864	55717,38
624,055	56360,44
624,245	55844,35
624,436	56024,57
624,626	56497,66
624,817	56335,87
625,007	56223,23
625,198	57165,29
625,388	56464,89
625,579	57085,42
625,769	57159,15
625,959	57243,12
626,15	56905,2
626,34	57085,42
626,531	57609,7
626,721	57794,02
626,911	57398,76
627,101	57505,26
627,292	57396,71
627,482	57656,81
627,672	57699,81
627,863	58195,42
628,053	57769,44
628,243	58154,46
628,433	58154,46
628,623	58179,04
628,814	57906,66
629,004	58289,63
629,194	58285,53
629,384	58043,87
629,574	58463,71
629,764	58322,4
629,955	58281,44
630,145	58523,1
630,335	58351,07
630,525	58508,76
630,715	58232,28
630,905	58488,28
631,095	58461,66
631,285	58744,28
631,475	58535,38
631,665	58854,87
631,855	58291,68
632,045	58531,29
632,235	58471,9
632,425	58318,3
632,615	58191,33
632,805	58324,44
632,994	57650,66
633,184	58609,11
633,374	58158,56
633,564	57757,16
633,754	58078,69
633,944	58248,67
634,133	57748,96
634,323	58736,09
634,513	58289,63
634,703	58478,04
634,893	58404,31
635,082	58445,27
635,272	57986,53
635,462	58422,75
635,651	58543,58
635,841	58535,38
636,031	57884,13
636,221	58129,89
636,41	57781,73
636,6	57486,82
636,789	57646,57
636,979	57998,82
637,169	57554,41
637,358	57902,56
637,548	57945,57
637,737	57830,88
637,927	57556,46
638,116	58150,37
638,306	57834,98
638,495	57830,88
638,685	57777,64
638,874	58080,74
639,064	57738,72
639,253	58125,79
639,443	57484,78
639,632	57652,71
639,822	57298,41
640,011	57787,88
640,2	57142,77
640,39	57796,07
640,579	57419,24
640,768	57529,83
640,958	56950,26
641,147	57454,06
641,336	57224,68
641,526	57634,28
641,715	57126,38
641,904	57904,61
642,093	56847,86
642,283	57781,73
642,472	57089,52
642,661	57517,54
642,85	57273,84
643,039	57292,27
643,228	57105,9
643,418	57056,75
643,607	56952,3
643,796	57183,72
643,985	57009,65
644,174	57019,89
644,363	57243,12
644,552	57257,45
644,741	56776,18
644,93	57204,2
645,119	56749,56
645,308	58052,06
645,497	57036,27
645,686	56946,16
645,875	57097,71
646,064	57023,98
646,253	56286,71
646,442	57081,33
646,631	57519,59
646,82	56886,77
647,009	57089,52
647,198	56976,88
647,387	56931,82
647,575	56897,01
647,764	57056,75
647,953	56776,18
648,142	56532,47
648,331	57179,63
648,519	56741,36
648,708	56800,75
648,897	56327,67
649,086	57208,3
649,274	56438,26
649,463	56815,09
649,652	56528,37
649,84	56727,03
650,029	56438,26
650,218	56917,49
650,406	56364,54
650,595	56413,69
650,784	56374,78
650,972	56620,53
651,161	56196,6
651,349	56860,15
651,538	56503,8
651,726	56536,57
651,915	56325,63
652,104	56036,86
652,292	56430,07
652,481	56294,91
652,669	56077,82
652,857	56757,75
653,046	56323,58
653,234	56501,75
653,423	56479,22
653,611	56772,08
653,8	55784,96
653,988	56624,63
654,176	56000
654,365	56479,22
654,553	56448,5
654,741	56047,1
654,93	55950,85
655,118	56004,09
655,306	56425,98
655,494	56528,37
655,683	55729,67
655,871	56106,49
656,059	56129,02
656,247	56430,07
656,436	55889,41
656,624	56192,51
656,812	55653,89
657	55774,72
657,188	56069,63
657,376	56667,64
657,564	55938,56
657,753	56350,2
657,941	55705,09
658,129	56475,13
658,317	55178,76
658,505	55735,81
658,693	55645,7
658,881	56102,4
659,069	55121,42
659,257	55619,08
659,445	55586,31
659,633	55762,43
659,821	55307,79
660,009	55733,76
660,197	55741,95
660,384	55989,76
660,572	55356,94
660,76	55553,54
660,948	55258,63
661,136	55311,88
661,324	55584,26
661,512	55893,5
661,699	55594,5
661,887	55531,01
662,075	55465,48
662,263	55078,41
662,451	55201,29
662,638	55449,1
662,826	55193,1
663,014	55701
663,201	54668,82
663,389	55320,07
663,577	55074,32
663,764	55922,18
663,952	55152,14
664,14	55342,6
664,327	55152,14
664,515	55203,34
664,702	54873,62
664,89	55037,45
665,078	54937,1
665,265	55369,22
665,453	54906,38
665,64	55133,71
665,828	54654,48
666,015	54861,33
666,203	55242,25
666,39	55356,94
666,578	55195,15
666,765	54947,34
666,952	54754,83
667,14	55242,25
667,327	54500,89
667,515	54478,36
667,702	54369,82
667,889	54746,64
668,077	54595,09
668,264	54693,39
668,451	54707,73
668,638	54824,46
668,826	54476,31
669,013	55000,59
669,2	54443,54
669,388	54679,06
669,575	54490,65
669,762	54654,48
669,949	53939,74
670,136	55350,79
670,323	53808,67
670,511	54588,95
670,698	54294,04
670,885	54253,08
671,072	54316,57
671,259	54447,64
671,446	54099,48
671,633	54259,23
671,82	54193,69
672,007	54394,39
672,194	53984,8
672,381	53788,19
672,568	54167,07
672,755	54103,58
672,942	53956,13
673,129	53786,14
673,316	54197,79
673,503	54001,18
673,69	53829,15
673,877	54005,28
674,064	54095,39
674,251	53870,11
674,437	53650,98
674,624	53794,34
674,811	53612,07
674,998	53409,32
675,185	53573,16
675,372	53560,87
675,558	53599,78
675,745	52993,58
675,932	53329,45
676,119	53556,77
676,305	53251,62
676,492	53190,19
676,679	52901,42
676,865	53155,37
677,052	52639,28
677,239	53906,97
677,425	52751,92
677,612	53526,05
677,798	53022,25
677,985	52753,97
678,172	52362,81
678,358	53280,3
678,545	53106,22
678,731	52612,66
678,918	52371
679,104	52985,39
679,291	53003,82
679,477	52577,84
679,664	52252,22
679,85	52803,12
680,036	52477,49
680,223	52354,61
680,409	52467,25
680,596	52330,04
680,782	52436,53
680,968	51828,29
681,155	52071,99
681,341	52237,88
681,527	52162,11
681,714	52571,7
681,9	52207,16
682,086	52131,39
682,272	51674,69
682,459	52035,13
682,645	52129,34
682,831	51981,88
683,017	51885,63
683,204	51883,58
683,39	52076,09
683,576	52178,49
683,762	52149,82
683,948	51932,73
684,134	51052,11
684,32	51551,81
684,506	51248,71
684,693	51469,89
684,879	51191,37
685,065	51895,87
685,251	50785,87
685,437	51873,34
685,623	51119,69
685,809	51088,97
685,995	50761,29
686,181	51533,38
686,366	50744,91
686,552	51269,19
686,738	50941,52
686,924	50892,36
687,11	51060,3
687,296	51007,05
687,482	50798,16
687,668	50736,72
687,853	50691,66
688,039	50548,31
688,225	50196,06
688,411	50531,92
688,597	50105,94
688,782	50208,34
688,968	50497,11
689,154	50204,25
689,34	49909,34
689,525	50456,15
689,711	49843,8
689,897	50142,81
690,082	50030,17
690,268	49811,04
690,454	49516,13
690,639	49563,23
690,825	49907,29
691,01	50165,34
691,196	49665,63
691,381	49823,33
691,567	49579,62
691,753	49770,08
691,938	49550,95
692,124	49153,64
692,309	49221,22
692,494	49391,2
692,68	49632,86
692,865	49249,89
693,051	48836,2
693,236	49075,82
693,422	48862,83
693,607	49165,93
693,792	49024,62
693,978	49114,73
694,163	48561,78
694,348	48615,02
694,534	48836,2
694,719	48862,83
694,904	48606,83
695,089	48721,52
695,275	48836,2
695,46	48469,62
695,645	48594,54
695,83	48617,07
696,016	48457,33
696,201	48209,53
696,386	48270,96
696,571	48737,9
696,756	47931
696,941	48860,78
697,126	47502,98
697,311	48938,6
697,497	47775,36
697,682	48154,23
697,867	47566,46
698,052	47865,47
698,237	47236,74
698,422	47873,66
698,607	48215,67
698,792	47672,96
698,977	47099,53
699,162	48010,87
699,347	47462,02
699,531	47664,77
699,716	47371,91
699,901	47185,54
700,086	47564,42
700,271	47515,26
700,456	47451,78
700,641	47310,47
700,825	47027,85
701,01	47251,08
701,195	47062,66
701,38	47140,49
701,565	46560,91
701,749	47165,06
701,934	46784,14
702,119	46747,28
702,303	46728,84
702,488	46575,25
702,673	46599,82
702,857	46755,47
703,042	46669,45
703,227	47025,8
703,411	46470,8
703,596	46644,88
703,78	46001,82
703,965	46599,82
704,15	45987,48
704,334	46184,08
704,519	45700,76
704,703	46481,04
704,888	45758,11
705,072	46659,21
705,257	45780,63
705,441	45895,32
705,625	45649,56
705,81	45698,72
705,994	45891,23
706,179	45829,79
706,363	45762,2
706,547	45749,92
706,732	45526,69
706,916	45852,31
707,1	45272,74
707,285	45516,45
707,469	45170,34
707,653	45659,8
707,837	45223,59
708,022	45444,77
708,206	45227,68
708,39	45184,68
708,574	45260,45
708,759	44807,85
708,943	44752,55
709,127	44822,19
709,311	44678,83
709,495	44875,43
709,679	44514,99
709,863	44674,73
710,047	44486,32
710,231	44926,63
710,415	44535,47
710,6	44361,39
710,784	44367,54
710,968	44510,89
711,152	44635,82
711,336	44388,02
711,519	44754,6
711,703	44400,3
711,887	44095,16
712,071	44220,08
712,255	43644,6
712,439	44054,2
712,623	43978,42
712,807	43699,9
712,991	44207,79
713,174	44588,72
713,358	44177,08
713,542	43921,08
713,726	43525,82
713,91	43876,02
714,093	43421,37
714,277	43726,52
714,461	43249,35
714,645	43765,43
714,828	43478,72
715,012	43095,75
715,196	43595,45
715,379	43097,8
715,563	42821,32
715,747	42753,74
715,93	42784,46
716,114	43052,74
716,297	43116,23
716,481	42673,87
716,664	42254,03
716,848	42723,02
717,031	42194,64
717,215	42632,91
717,398	42641,1
717,582	42534,6
717,765	41846,49
717,949	42026,71
718,132	41666,27
718,316	42155,73
718,499	42137,3
718,682	41963,22
718,866	41766,62
719,049	41815,77
719,233	41539,29
719,416	41955,03
719,599	41570,01
719,782	41357,02
719,966	41520,86
720,149	41316,06
720,332	41205,47
720,515	41559,77
720,699	41045,73
720,882	41549,53
721,065	40982,24
721,248	41058,02
721,431	41113,31
721,615	40855,27
721,798	41135,84
721,981	41006,82
722,164	40709,86
722,347	40648,43
722,53	40603,37
722,713	40113,91
722,896	40638,19
723,079	40619,75
723,262	40222,45
723,445	40232,69
723,628	40066,8
723,811	40390,38
723,994	40023,79
724,177	40320,75
724,36	40027,89
724,543	40713,96
724,726	40048,37
724,909	40310,51
725,091	40445,68
725,274	39956,21
725,457	40316,65
725,64	40230,64
725,823	40066,8
726,006	40181,49
726,188	39909,11
726,371	40365,81
726,554	39405,31
726,737	39921,4
726,919	39792,37
727,102	39706,36
727,285	39550,71
727,467	39247,61
727,65	39440,12
727,833	39749,37
728,015	39472,89
728,198	39716,6
728,38	39538,43
728,563	39814,9
728,746	39487,23
728,928	39188,22
729,111	39085,82
729,293	39735,03
729,476	39360,25
729,658	39157,5
729,841	39300,86
730,023	39429,88
730,205	38889,22
730,388	39063,3
730,57	39177,98
730,753	38954,75
730,935	39067,39
731,117	38821,64
731,3	38713,09
731,482	38803,21
731,664	38739,72
731,847	38913,8
732,029	38565,64
732,211	39057,15
732,394	38860,55
732,576	38432,52
732,758	38002,45
732,94	38500,11
733,122	37951,25
733,305	38416,14
733,487	38278,93
733,669	38835,97
733,851	38657,8
734,033	38563,59
734,215	38614,79
734,397	38248,21
734,58	38289,17
734,762	38090,51
734,944	38002,45
735,126	38100,75
735,308	37838,61
735,49	38147,86
735,672	37990,16
735,854	37873,43
736,036	38106,9
736,218	37965,59
736,399	37711,64
736,581	38053,65
736,763	37803,8
736,945	37748,5
737,127	37431,07
737,309	37539,61
737,491	37725,97
737,672	37627,67
737,854	37265,18
738,036	37281,56
738,218	37596,95
738,4	37410,59
738,581	37211,93
738,763	36925,22
738,945	37046,05
739,127	37240,61
739,308	36992,8
739,49	36845,35
739,672	36810,53
739,853	36900,64
740,035	36339,5
740,216	36968,23
740,398	36532,01
740,58	36515,62
740,761	36714,28
740,943	36775,72
741,124	36562,73
741,306	36493,1
741,487	36310,83
741,669	36437,8
741,85	36032,3
742,032	35790,64
742,213	36228,91
742,394	35893,04
742,576	35880,75
742,757	36224,81
742,939	36106,03
743,12	35761,97
743,301	35702,58
743,483	35708,72
743,664	35125,05
743,845	35413,82
744,027	35659,57
744,208	35444,54
744,389	35213,12
744,57	35379
744,752	35352,38
744,933	35129,15
745,114	35145,53
745,295	35323,71
745,476	35227,45
745,657	35495,74
745,839	34989,89
746,02	34852,67
746,201	34965,31
746,382	35391,29
746,563	35080
746,744	35114,81
746,925	34967,36
747,106	35671,86
747,287	34955,07
747,468	35184,44
747,649	34942,78
747,83	34985,79
748,011	34996,03
748,192	35475,26
748,373	34893,63
748,554	35258,17
748,735	35505,98
748,915	35358,52
749,096	35448,63
749,277	35786,55
749,458	35278,65
749,639	35872,56
749,82	35931,95
750	35278,65
750,181	35452,73
750,362	35911,47
750,543	35678
750,723	36468,52
750,904	36065,07
751,085	36294,44
751,265	36126,51
751,446	36542,25
751,627	36257,58
751,807	36470,57
751,988	36509,48
752,169	36583,21
752,349	36880,16
752,53	37162,78
752,71	36859,68
752,891	37044
753,071	37175,07
753,252	37304,09
753,432	37347,1
753,613	37525,27
753,793	37824,28
753,974	37871,38
754,154	37895,96
754,334	38227,73
754,515	38166,29
754,695	38518,54
754,876	38088,46
755,056	38473,48
755,236	38510,35
755,417	38510,35
755,597	38145,81
755,777	38321,93
755,957	38932,23
756,138	38911,75
756,318	38838,02
756,498	38858,5
756,678	38969,09
756,859	38889,22
757,039	38874,88
757,219	38975,23
757,399	39087,87
757,579	39169,79
757,759	38991,62
757,939	39071,49
758,119	39055,11
758,3	39288,57
758,48	39366,4
758,66	39352,06
758,84	39155,46
759,02	39505,66
759,2	39210,75
759,38	38891,27
759,56	39460,6
759,74	39685,88
759,919	38962,95
760,099	39089,92
760,279	39239,42
760,459	38973,19
760,639	38862,6
760,819	38921,99
760,999	38723,33
761,178	39282,43
761,358	38575,88
761,538	38440,71
761,718	38366,99
761,898	38498,06
762,077	38510,35
762,257	38291,21
762,437	38215,44
762,616	37951,25
762,796	38074,13
762,976	38121,23
763,155	37992,21
763,335	37525,27
763,515	37732,12
763,694	37248,8
763,874	37060,38
764,053	37240,61
764,233	37181,21
764,413	37101,34
764,592	36763,43
764,772	36831,01
764,951	36728,61
765,131	36327,21
765,31	36470,57
765,489	36609,83
765,669	35989,3
765,848	35866,42
766,028	35931,95
766,207	36065,07
766,386	35307,32
766,566	35651,38
766,745	34934,59
766,924	35225,4
767,104	35610,42
767,283	34996,03
767,462	34873,15
767,642	34701,12
767,821	34103,12
768	34215,76
768,179	34262,86
768,358	33654,61
768,538	33490,77
768,717	33765,2
768,896	33341,27
769,075	33627,99
769,254	33193,82
769,433	33292,12
769,612	33173,34
769,791	32673,63
769,97	32821,09
770,149	32694,11
770,328	31887,21
770,507	32049
770,686	31973,23
770,865	32141,16
771,044	32020,33
771,223	31395,7
771,402	31147,9
771,581	31772,53
771,76	31143,8
771,939	30842,75
772,118	30889,85
772,297	30779,26
772,475	30338,95
772,654	30617,47
772,833	30283,66
773,012	30142,35
773,191	29921,16
773,369	30175,11
773,548	29708,18
773,727	29292,44
773,906	29683,6
774,084	29187,99
774,263	29292,44
774,442	28962,72
774,62	29212,57
774,799	28800,93
774,977	28395,43
775,156	28307,37
775,335	28604,32
775,513	28417,96
775,692	28448,68
775,87	28295,08
776,049	27948,97
776,227	28018,6
776,406	27733,93
776,584	27690,93
776,763	27410,36
776,941	27299,76
777,119	27406,26
777,298	27011
777,476	26765,24
777,655	27019,19
777,833	26644,41
778,011	26687,42
778,19	26687,42
778,368	26523,58
778,546	26085,32
778,725	26562,5
778,903	25774,03
779,081	25853,9
779,259	25710,54
779,437	25911,24
779,616	25784,27
779,794	25661,39
779,972	25515,98
780,15	25573,33
780,328	25219,03
780,506	25257,94
780,685	25102,29
780,863	24831,96
781,041	24596,45
781,219	24610,78
781,397	24549,34
781,575	24594,4
781,753	24596,45
781,931	24121,32
782,109	24643,55
782,287	24127,46
782,465	24074,21
782,643	24205,28
782,82	23732,2
782,998	23934,95
783,176	23551,98
783,354	23789,55
783,532	23861,23
783,71	23648,24
783,888	23513,07
784,065	23644,14
784,243	23042,04
784,421	23236,59
784,599	22675,45
784,776	23195,64
784,954	22718,46
785,132	22728,7
785,31	22390,78
785,487	22308,86
785,665	22411,26
785,842	22980,6
786,02	22425,6
786,198	22511,61
786,375	21964,81
786,553	22224,9
786,73	22192,13
786,908	21788,68
787,085	22038,53
787,263	21886,98
787,44	21626,89
787,618	21585,93
787,795	21598,22
787,973	21428,24
788,15	21669,9
788,328	21508,11
788,505	21544,97
788,682	21235,73
788,86	21252,11
789,037	21178,39
789,215	20977,69
789,392	20719,64
789,569	20887,57
789,746	21082,13
789,924	20627,48
790,101	20996,12
790,278	20492,32
790,455	20578,33
790,633	20287,52
790,81	20437,02
790,987	20246,56
791,164	19978,28
791,341	20183,07
791,518	20299,81
791,695	19961,89
791,873	19855,4
792,05	19783,72
792,227	19804,2
792,404	19879,97
792,581	19791,91
792,758	19736,62
792,935	19456,04
793,112	19574,83
793,289	19521,58
793,466	19417,13
793,643	19136,56
793,82	19177,52
793,996	19034,16
794,173	19071,03
794,35	18972,72
794,527	19187,76
794,704	19216,43
794,881	18718,78
795,057	18868,28
795,234	18440,25
795,411	18782,26
795,588	18716,73
795,765	18823,22
795,941	18552,89
796,118	18630,71
796,295	18194,5
796,471	18317,37
796,648	18280,51
796,825	18341,95
797,001	17958,98
797,178	18073,67
797,354	18104,39
797,531	18278,46
797,708	17852,48
797,884	17856,58
798,061	17801,29
798,237	17705,03
798,414	17510,47
798,59	17752,13
798,767	17541,19
798,943	17576,01
799,119	17432,65
799,296	17381,45
799,472	17369,16
799,649	17207,37
799,825	17383,5
800,001	17004,63
800,178	16955,47
800,354	17049,68
800,53	16978
800,707	17061,97
800,883	16705,62
801,059	16810,07
801,235	16734,29
801,411	17109,07
801,588	16490,59
801,764	16746,58
801,94	16545,88
802,116	16466,01
802,292	16420,95
802,468	16457,82
802,645	16494,68
802,821	16566,36
802,997	16142,43
803,173	16293,98
803,349	16418,91
803,525	16193,63
803,701	15911,01
803,877	16156,77
804,053	15736,93
804,229	15843,43
804,405	16007,27
804,581	15837,28
804,756	15675,49
804,932	15786,08
805,108	15523,94
805,284	15659,11
805,46	15661,16
805,636	15607,91
805,812	15247,47
805,987	15663,21
806,163	15329,39
806,339	15784,04
806,515	15155,31
806,69	15302,76
806,866	15396,97
807,042	14958,71
807,217	15124,59
807,393	15132,78
807,569	15196,27
807,744	15175,79
807,92	15028,34
808,096	14923,89
808,271	15063,15
808,447	14815,35
808,622	14813,3
808,798	14770,29
808,973	14604,41
809,149	14624,89
809,324	14489,72
809,5	14704,76
809,675	14604,41
809,851	14491,77
810,026	14168,19
810,201	14346,36
810,377	14344,31
810,552	14037,12
810,728	14340,22
810,903	14078,08
811,078	14137,47
811,253	14057,6
811,429	14084,22
811,604	13877,38
811,779	13992,06
811,955	14026,88
812,13	13871,23
812,305	13809,79
812,48	13832,32
812,655	13815,94
812,83	13379,72
813,006	13584,52
813,181	13629,57
813,356	13703,3
813,531	13619,33
813,706	13430,92
813,881	13404,3
814,056	13447,3
814,231	13527,17
814,406	13140,11
814,581	13353,1
814,756	13152,4
814,931	12894,35
815,106	13174,92
815,281	13099,15
815,456	13029,52
815,631	12853,39
815,805	13172,88
815,98	12734,61
816,155	12888,21
816,33	12779,67
816,505	12861,59
816,68	12847,25
816,854	12687,51
817,029	12693,65
817,204	12738,71
817,379	12429,46
817,553	12785,81
817,728	12699,8
817,903	12462,23
818,077	12576,92
818,252	12331,16
818,427	12495
818,601	12212,38
818,776	12488,85
818,95	12499,09
819,125	12294,3
819,299	12200,09
819,474	11909,28
819,648	12322,97
819,823	12109,98
819,997	12325,02
820,172	11987,1
820,346	12183,71
820,521	12089,5
820,695	11966,62
820,87	11940
821,044	11657,38
821,218	12146,84
821,393	11960,48
821,567	11600,04
821,741	11643,04
821,916	11428,01
822,09	11774,11
822,264	11786,4
822,438	11780,26
822,613	11298,98
822,787	11591,84
822,961	11663,52
823,135	11266,22
823,309	11471,01
823,483	11241,64
823,658	11374,76
823,832	11108,52
824,006	11233,45
824,18	11360,42
824,354	11163,82
824,528	11088,04
824,702	11102,38
824,876	11227,31
825,05	10891,44
825,224	11042,99
825,398	10883,25
825,572	10848,43
825,746	10799,28
825,92	11020,46
826,093	10791,09
826,267	10827,95
826,441	10674,35
826,615	10750,13
826,789	10823,86
826,963	10623,16
827,136	10621,11
827,31	10633,4
827,484	10848,43
827,658	10504,37
827,831	10483,89
828,005	10326,2
828,179	10406,07
828,353	10363,06
828,526	10344,63
828,7	10205,37
828,873	10188,99
829,047	10397,88
829,221	10084,54
829,394	10244,28
829,568	10156,22
829,741	10342,58
829,915	9939,13
830,088	10031,29
830,262	10021,05
830,435	10107,07
830,609	9879,74
830,782	10150,07
830,956	10035,39
831,129	9992,38
831,302	10131,64
831,476	9822,4
831,649	9724,1
831,822	9857,21
831,996	9705,67
832,169	9668,8
832,342	9588,93
832,516	9818,3
832,689	9449,67
832,862	9619,65
833,035	9509,06
833,209	9341,13
833,382	9513,16
833,555	9597,12
833,728	9261,26
833,901	9148,62
834,074	9406,66
834,247	9040,08
834,42	9222,34
834,594	9140,43
834,767	9242,82
834,94	9152,71
835,113	9236,68
835,286	8929,49
835,459	9234,63
835,632	8956,11
835,805	9035,98
835,977	8988,88
836,15	8775,89
836,323	8734,93
836,496	8868,05
836,669	8841,42
836,842	8810,7
837,015	8861,9
837,188	8650,96
837,36	8833,23
837,533	8767,7
837,706	8691,92
837,879	8796,37
838,051	8646,87
838,224	8472,79
838,397	8546,51
838,569	8411,35
838,742	8513,75
838,915	8374,49
839,087	8356,05
839,26	8382,68
839,433	8317,14
839,605	8370,39
839,778	8159,45
839,95	8138,97
840,123	8141,02
840,295	8134,87
840,468	8276,18
840,64	7905,5
840,813	8050,91
840,985	8227,03
841,158	8005,85
841,33	7997,66
841,502	7837,92
841,675	7995,61
841,847	7932,12
842,019	7901,4
842,192	7864,54
842,364	7723,23
842,536	7723,23
842,709	7680,22
842,881	7792,86
843,053	7751,9
843,225	7569,63
843,398	7688,42
843,57	7489,76
843,742	7504,1
843,914	7610,59
844,086	7563,49
844,258	7512,29
844,43	7325,93
844,602	7424,23
844,775	7448,8
844,947	7407,84
845,119	7104,74
845,291	7317,73
845,463	7176,42
845,635	7174,38
845,807	7305,45
845,979	7139,56
846,15	7082,22
846,322	7076,07
846,494	7168,23
846,666	6832,37
846,838	7037,16
847,01	6947,05
847,182	7004,39
847,354	6961,39
847,525	6850,8
847,697	6858,99
847,869	6768,88
848,041	6781,17
848,212	6672,62
848,384	6693,1
848,556	6598,9
848,727	6707,44
848,899	6703,34
849,071	6736,11
849,242	6625,52
849,414	6611,18
849,585	6619,38
849,757	6588,66
849,929	6541,55
850,1	6375,67
850,272	6568,18
850,443	6379,76
850,615	6338,8
850,786	6314,23
850,958	6359,28
851,129	6310,13
851,3	6392,05
851,472	6209,78
851,643	6078,71
851,815	6195,45
851,986	6289,65
852,157	6310,13
852,329	6215,93
852,5	6168,82
852,671	6015,23
852,842	5951,74
853,014	5800,19
853,185	6101,24
853,356	5933,31
853,527	5722,37
853,698	5830,91
853,87	5779,71
854,041	5953,79
854,212	5898,49
854,383	5687,55
854,554	5710,08
854,725	5654,78
854,896	5677,31
855,067	5769,47
855,238	5613,82
855,409	5546,24
855,58	5665,02
855,751	5529,86
855,922	5589,25
856,093	5708,03
856,264	5374,21
856,435	5237
856,606	5507,33
856,777	5439,75
856,948	5388,55
857,118	5120,26
857,289	5284,1
857,46	5237
857,631	5228,81
857,802	5222,66
857,972	5048,58
858,143	5087,5
858,314	5048,58
858,484	5013,77
858,655	5021,96
858,826	5089,54
858,996	4903,18
859,167	5118,22
859,338	5013,77
859,508	4870,41
859,679	4892,94
859,849	4940,04
860,02	4933,9
860,19	4825,36
860,361	4841,74
860,531	4638,99
860,702	4876,55
860,872	4868,36
861,043	4841,74
861,213	4819,21
861,384	4786,44
861,554	4466,96
861,724	4710,67
861,895	4536,59
862,065	4581,65
862,235	4567,31
862,406	4475,15
862,576	4516,11
862,746	4466,96
862,916	4442,39
863,087	4565,26
863,257	4352,27
863,427	4331,8
863,597	4210,97
863,767	4368,66
863,937	4186,39
864,108	4397,33
864,278	4352,27
864,448	4192,53
864,618	4188,44
864,788	4081,94
864,958	4204,82
865,128	4100,37
865,298	4206,87
865,468	4170,01
865,638	4063,51
865,808	4210,97
865,978	4061,46
866,148	4040,98
866,318	3950,87
866,487	3934,49
866,657	3875,1
866,827	3924,25
866,997	3778,84
867,167	3991,83
867,337	4004,12
867,506	3893,53
867,676	3821,85
867,846	3725,6
868,016	3860,76
868,185	3696,92
868,355	3701,02
868,525	3651,87
868,694	3612,96
868,864	3754,27
869,034	3549,47
869,203	3672,35
869,373	3692,83
869,542	3842,33
869,712	3531,04
869,881	3490,08
870,051	3352,87
870,22	3655,97
870,39	3352,87
870,559	3469,6
870,729	3256,61
870,898	3533,09
871,068	3406,11
871,237	3289,38
871,406	3330,34
871,576	3402,02
871,745	3213,6
871,914	3275,04
872,084	3236,13
872,253	3279,14
872,422	3262,76
872,591	3244,32
872,761	3033,38
872,93	3344,67
873,099	3131,69
873,268	3053,86
873,437	3025,19
873,607	3025,19
873,776	3049,77
873,945	2926,89
874,114	2922,79
874,283	3047,72
874,452	2847,02
874,621	2851,11
874,79	2910,5
874,959	2865,45
875,128	2896,17
875,297	2916,65
875,466	2840,87
875,635	2875,69
875,804	2844,97
875,973	2695,47
876,142	2847,02
876,31	2713,9
876,479	2769,2
876,648	2732,33
876,817	2500,91
876,986	2722,09
877,155	2646,32
877,323	2525,49
877,492	2701,61
877,661	2703,66
877,829	2578,73
877,998	2591,02
878,167	2511,15
878,335	2578,73
878,504	2492,72
878,673	2576,69
878,841	2521,39
879,01	2459,95
879,178	2443,57
879,347	2443,57
879,515	2433,33
879,684	2359,6
879,852	2378,03
880,021	2339,12
880,189	2378,03
880,358	2359,6
880,526	2437,42
880,695	2318,64
880,863	2246,96
881,031	2304,31
881,2	2232,63
881,368	2289,97
881,536	2367,79
881,705	2269,49
881,873	2292,02
882,041	2259,25
882,21	2148,66
882,378	2171,19
882,546	2050,36
882,714	2197,81
882,882	2167,09
883,05	2148,66
883,219	2119,99
883,387	2119,99
883,555	2021,69
883,723	2138,42
883,891	1894,71
884,059	2013,49
884,227	2079,03
884,395	2064,69
884,563	1984,82
884,731	1941,82
884,899	2027,83
885,067	2101,56
885,235	1904,95
885,403	1915,19
885,571	1990,97
885,739	1956,15
