Data from LED  blau_USB4F035431__0__12-58-48-741.txt Node

Date: Tue Feb 02 12:58:48 CET 2021
User: Praktikum
Spectrometer: USB4F03543
Trigger mode: 4
Integration Time (sec): 4,000000E-1
Scans to average: 1
Electric dark correction enabled: true
Nonlinearity correction enabled: false
Boxcar width: 0
XAxis mode: Wavelengths
Number of Pixels in Spectrum: 3648
>>>>>Begin Spectral Data<<<<<
179,969	-685,56
180,181	-685,56
180,394	-685,56
180,606	-523,77
180,819	-615,93
181,031	225,79
181,243	344,57
181,456	-192
181,668	-87,55
181,88	188,93
182,093	31,23
182,305	-323,07
182,518	-157,18
182,73	313,85
182,942	139,77
183,155	-284,16
183,367	-200,19
183,579	174,59
183,791	268,8
184,004	-267,77
184,216	-163,33
184,428	61,95
184,641	78,33
184,853	-245,24
185,065	-198,14
185,277	92,67
185,49	238,08
185,702	-290,3
185,914	-271,87
186,126	121,34
186,338	143,87
186,551	-335,35
186,763	-136,7
186,975	-108,03
187,187	72,19
187,399	-271,87
187,612	-226,81
187,824	33,28
188,036	90,62
188,248	-161,28
188,46	-202,24
188,672	150,01
188,885	-46,59
189,097	-144,89
189,309	-259,58
189,521	88,57
189,733	238,08
189,945	-200,19
190,157	-95,74
190,369	57,86
190,581	-5,63
190,794	-87,55
191,006	-269,82
191,218	72,19
191,43	135,68
191,642	-288,25
191,854	-189,95
192,066	303,61
192,278	158,21
192,49	-333,31
192,702	-153,09
192,914	139,77
193,126	190,97
193,338	-235
193,55	-144,89
193,762	254,46
193,974	-179,71
194,186	-271,87
194,398	-198,14
194,61	94,72
194,822	217,6
195,034	-202,24
195,246	-7,68
195,457	82,43
195,669	299,52
195,881	-165,37
196,093	-189,95
196,305	150,01
196,517	-210,43
196,729	-183,81
196,941	-163,33
197,153	289,28
197,365	403,96
197,576	-294,4
197,788	-245,24
198	203,26
198,212	272,89
198,424	-249,34
198,636	-251,39
198,847	-54,78
199,059	86,53
199,271	-349,69
199,483	-134,65
199,695	51,71
199,906	164,35
200,118	-226,81
200,33	-200,19
200,542	911,86
200,753	98,81
200,965	-284,16
201,177	-171,52
201,389	84,48
201,6	-112,13
201,812	-263,68
202,024	-196,09
202,235	4,61
202,447	219,64
202,659	-194,05
202,871	-163,33
203,082	66,05
203,294	-19,97
203,506	-261,63
203,717	-79,36
203,929	156,16
204,141	-5,63
204,352	-247,29
204,564	-177,66
204,775	39,42
204,987	352,76
205,199	-210,43
205,41	-140,8
205,622	225,79
205,833	94,72
206,045	-153,09
206,257	-155,13
206,468	-50,69
206,68	-46,59
206,891	-169,47
207,103	-247,29
207,314	-136,7
207,526	207,36
207,737	-218,62
207,949	-58,88
208,16	154,11
208,372	64
208,583	-177,66
208,795	-189,95
209,006	29,18
209,218	119,29
209,429	-259,58
209,641	-169,47
209,852	51,71
210,064	203,26
210,275	-259,58
210,487	-157,18
210,698	256,51
210,909	227,84
211,121	-87,55
211,332	-124,41
211,544	158,21
211,755	281,08
211,966	4,61
212,178	-249,34
212,389	453,11
212,6	20,99
212,812	68,09
213,023	-192
213,234	205,31
213,446	227,84
213,657	-304,64
213,868	-179,71
214,08	410,11
214,291	217,6
214,502	-220,67
214,714	-237,05
214,925	-5,63
215,136	104,96
215,347	-157,18
215,559	-261,63
215,77	-44,54
215,981	297,47
216,192	-275,96
216,404	-175,61
216,615	160,25
216,826	127,49
217,037	-222,72
217,249	-269,82
217,46	381,43
217,671	121,34
217,882	-267,77
218,093	-220,67
218,304	115,2
218,516	127,49
218,727	-316,92
218,938	-286,2
219,149	465,4
219,36	168,45
219,571	-321,02
219,782	-222,72
219,993	354,81
220,205	-42,5
220,416	-163,33
220,627	-142,85
220,838	260,6
221,049	500,22
221,26	-241,15
221,471	-251,39
221,682	168,45
221,893	270,84
222,104	-226,81
222,315	-294,4
222,526	-77,31
222,737	27,14
222,948	-284,16
223,159	-224,76
223,37	94,72
223,581	-65,02
223,792	-228,86
224,003	-138,75
224,214	-101,89
224,425	127,49
224,636	-257,53
224,847	-122,37
225,058	133,63
225,269	139,77
225,48	-280,06
225,691	-306,68
225,902	197,12
226,112	66,05
226,323	-310,78
226,534	-210,43
226,745	16,9
226,956	25,09
227,167	-130,56
227,378	-196,09
227,589	-116,22
227,799	311,8
228,01	-247,29
228,221	-267,77
228,432	102,91
228,643	-120,32
228,853	-179,71
229,064	-271,87
229,275	80,38
229,486	14,85
229,697	-161,28
229,907	-144,89
230,118	104,96
230,329	-60,93
230,54	-222,72
230,75	-79,36
230,961	274,94
231,172	29,18
231,383	-171,52
231,593	-300,54
231,804	-40,45
232,015	104,96
232,225	-202,24
232,436	-232,96
232,647	207,36
232,857	229,88
233,068	-273,92
233,279	-71,17
233,489	37,38
233,7	74,24
233,91	-228,86
234,121	-214,52
234,332	113,15
234,542	6,66
234,753	-212,48
234,964	-146,94
235,174	6,66
235,385	252,41
235,595	-216,57
235,806	-62,98
236,016	-93,69
236,227	-48,64
236,437	-284,16
236,648	-181,76
236,858	125,44
237,069	-50,69
237,279	-202,24
237,49	-208,38
237,7	123,39
237,911	51,71
238,121	-247,29
238,332	-179,71
238,542	164,35
238,753	14,85
238,963	-259,58
239,174	-169,47
239,384	121,34
239,595	4,61
239,805	-185,85
240,015	-237,05
240,226	72,19
240,436	131,58
240,647	-235
240,857	-220,67
241,067	53,76
241,278	715,25
241,488	-331,26
241,698	-126,46
241,909	-19,97
242,119	111,1
242,329	-122,37
242,54	-126,46
242,75	66,05
242,96	-95,74
243,171	-134,65
243,381	-140,8
243,591	-50,69
243,801	268,8
244,012	4,61
244,222	-189,95
244,432	-228,86
244,642	-9,73
244,853	-208,38
245,063	-177,66
245,273	104,96
245,483	96,77
245,694	-153,09
245,904	-187,9
246,114	82,43
246,324	-44,54
246,534	-146,94
246,744	-245,24
246,955	-267,77
247,165	281,08
247,375	45,57
247,585	-157,18
247,795	131,58
248,005	182,78
248,215	-202,24
248,425	-134,65
248,636	641,53
248,846	0,51
249,056	-243,2
249,266	-226,81
249,476	88,57
249,686	152,06
249,896	-267,77
250,106	-169,47
250,316	66,05
250,526	408,06
250,736	-261,63
250,946	66,05
251,156	293,37
251,366	-15,87
251,576	-116,22
251,786	-3,58
251,996	-54,78
252,206	-79,36
252,416	-159,23
252,626	-196,09
252,836	-36,35
253,046	143,87
253,256	-132,61
253,466	-118,27
253,676	174,59
253,885	199,16
254,095	-192
254,305	-130,56
254,515	68,09
254,725	94,72
254,935	-288,25
255,145	-140,8
255,355	279,04
255,564	49,66
255,774	-241,15
255,984	96,77
256,194	147,97
256,404	66,05
256,614	-175,61
256,823	-87,55
257,033	18,94
257,243	274,94
257,453	-224,76
257,662	-134,65
257,872	303,61
258,082	-17,92
258,292	-269,82
258,501	-159,23
258,711	659,96
258,921	412,15
259,131	-290,3
259,34	-226,81
259,55	51,71
259,76	-38,4
259,969	-175,61
260,179	-157,18
260,389	55,81
260,598	328,19
260,808	-138,75
261,018	-163,33
261,227	311,8
261,437	-13,82
261,647	-235
261,856	-282,11
262,066	119,29
262,275	432,63
262,485	-241,15
262,694	-122,37
262,904	16,9
263,114	233,98
263,323	-218,62
263,533	-230,91
263,742	-87,55
263,952	133,63
264,161	-304,64
264,371	-146,94
264,58	107,01
264,79	-17,92
264,999	-101,89
265,209	-208,38
265,418	209,4
265,628	80,38
265,837	-226,81
266,047	-220,67
266,256	305,66
266,466	-65,02
266,675	-255,48
266,884	-103,93
267,094	100,86
267,303	315,9
267,513	-153,09
267,722	-22,02
267,931	137,73
268,141	-54,78
268,35	-224,76
268,559	-247,29
268,769	43,52
268,978	-187,9
269,187	-179,71
269,397	-167,42
269,606	-161,28
269,815	-65,02
270,025	-179,71
270,234	-179,71
270,443	-91,65
270,653	59,9
270,862	-345,59
271,071	-179,71
271,28	-60,93
271,49	84,48
271,699	-146,94
271,908	-204,28
272,117	27,14
272,327	-46,59
272,536	-286,2
272,745	-173,57
272,954	-13,82
273,163	190,97
273,372	160,25
273,582	-202,24
273,791	166,4
274	-17,92
274,209	-67,07
274,418	31,23
274,627	264,7
274,836	-17,92
275,046	8,7
275,255	-89,6
275,464	-34,3
275,673	-87,55
275,882	25,09
276,091	-99,84
276,3	213,5
276,509	43,52
276,718	-67,07
276,927	-48,64
277,136	78,33
277,345	129,53
277,554	51,71
277,763	64
277,972	121,34
278,181	186,88
278,39	-93,69
278,599	-11,78
278,808	-38,4
279,017	213,5
279,226	-237,05
279,435	-13,82
279,644	117,25
279,853	211,45
280,062	324,09
280,271	-95,74
280,48	72,19
280,688	0,51
280,897	43,52
281,106	-153,09
281,315	-62,98
281,524	59,9
281,733	8,7
281,942	-42,5
282,151	98,81
282,359	141,82
282,568	-112,13
282,777	-40,45
282,986	33,28
283,195	150,01
283,403	33,28
283,612	-62,98
283,821	45,57
284,03	-73,21
284,238	-1,54
284,447	-71,17
284,656	29,18
284,865	178,69
285,073	-7,68
285,282	-15,87
285,491	-46,59
285,699	-112,13
285,908	-17,92
286,117	-36,35
286,325	107,01
286,534	291,32
286,743	-15,87
286,951	-15,87
287,16	207,36
287,369	12,8
287,577	-85,5
287,786	-54,78
287,995	68,09
288,203	-99,84
288,412	111,1
288,62	-17,92
288,829	0,51
289,037	10,75
289,246	-28,16
289,455	-136,7
289,663	139,77
289,872	281,08
290,08	-50,69
290,289	61,95
290,497	-13,82
290,706	131,58
290,914	-144,89
291,123	-54,78
291,331	61,95
291,54	274,94
291,748	195,07
291,957	82,43
292,165	84,48
292,373	-99,84
292,582	-52,74
292,79	-13,82
292,999	107,01
293,207	109,05
293,415	-89,6
293,624	-159,23
293,832	35,33
294,041	164,35
294,249	-1,54
294,457	-194,05
294,666	43,52
294,874	-196,09
295,082	-22,02
295,291	-42,5
295,499	-36,35
295,707	96,77
295,915	-15,87
296,124	47,62
296,332	27,14
296,54	27,14
296,749	133,63
296,957	-19,97
297,165	27,14
297,373	-17,92
297,581	59,9
297,79	-97,79
297,998	-153,09
298,206	-108,03
298,414	-17,92
298,622	10,75
298,831	133,63
299,039	29,18
299,247	168,45
299,455	-3,58
299,663	322,04
299,871	43,52
300,08	-116,22
300,288	-40,45
300,496	27,14
300,704	27,14
300,912	-103,93
301,12	10,75
301,328	125,44
301,536	33,28
301,744	-187,9
301,952	-103,93
302,16	-103,93
302,368	-5,63
302,576	-52,74
302,784	152,06
302,992	-202,24
303,2	-128,51
303,408	-3,58
303,616	-124,41
303,824	190,97
304,032	262,65
304,24	219,64
304,448	61,95
304,656	18,94
304,864	283,13
305,072	59,9
305,28	-19,97
305,488	33,28
305,696	88,57
305,904	-15,87
306,111	-185,85
306,319	-22,02
306,527	61,95
306,735	39,42
306,943	-3,58
307,151	74,24
307,359	-62,98
307,566	8,7
307,774	123,39
307,982	152,06
308,19	-103,93
308,398	-71,17
308,605	-52,74
308,813	-116,22
309,021	-5,63
309,229	174,59
309,436	-56,83
309,644	209,4
309,852	221,69
310,06	51,71
310,267	-79,36
310,475	104,96
310,683	133,63
310,89	27,14
311,098	47,62
311,306	82,43
311,513	254,46
311,721	-65,02
311,929	96,77
312,136	-26,11
312,344	-32,26
312,552	98,81
312,759	-22,02
312,967	152,06
313,174	156,16
313,382	72,19
313,589	25,09
313,797	258,56
314,005	125,44
314,212	14,85
314,42	-146,94
314,627	-5,63
314,835	-40,45
315,042	-44,54
315,25	-263,68
315,457	-91,65
315,665	-267,77
315,872	107,01
316,08	-38,4
316,287	-114,17
316,495	438,78
316,702	-50,69
316,909	-185,85
317,117	246,27
317,324	117,25
317,532	203,26
317,739	-175,61
317,946	-9,73
318,154	-60,93
318,361	-89,6
318,569	59,9
318,776	10,75
318,983	-91,65
319,191	72,19
319,398	0,51
319,605	104,96
319,813	119,29
320,02	-239,1
320,227	160,25
320,434	203,26
320,642	-26,11
320,849	-132,61
321,056	76,29
321,264	82,43
321,471	117,25
321,678	20,99
321,885	-130,56
322,092	174,59
322,3	96,77
322,507	-146,94
322,714	20,99
322,921	-15,87
323,128	-163,33
323,336	-44,54
323,543	6,66
323,75	207,36
323,957	76,29
324,164	12,8
324,371	57,86
324,578	-173,57
324,786	150,01
324,993	-65,02
325,2	-44,54
325,407	-300,54
325,614	51,71
325,821	121,34
326,028	121,34
326,235	227,84
326,442	53,76
326,649	-81,41
326,856	8,7
327,063	-175,61
327,27	10,75
327,477	-36,35
327,684	-265,72
327,891	-138,75
328,098	123,39
328,305	72,19
328,512	-118,27
328,719	139,77
328,926	238,08
329,133	-83,45
329,34	309,76
329,546	35,33
329,753	20,99
329,96	-144,89
330,167	84,48
330,374	215,55
330,581	184,83
330,788	-183,81
330,995	12,8
331,201	18,94
331,408	27,14
331,615	0,51
331,822	-60,93
332,029	-24,06
332,235	51,71
332,442	-48,64
332,649	-79,36
332,856	-112,13
333,062	10,75
333,269	43,52
333,476	-7,68
333,683	-83,45
333,889	127,49
334,096	-7,68
334,303	41,47
334,509	-13,82
334,716	57,86
334,923	37,38
335,129	-40,45
335,336	135,68
335,543	156,16
335,749	-22,02
335,956	219,64
336,163	-130,56
336,369	164,35
336,576	0,51
336,782	49,66
336,989	-34,3
337,196	133,63
337,402	-105,98
337,609	-210,43
337,815	-28,16
338,022	199,16
338,228	98,81
338,435	195,07
338,641	199,16
338,848	322,04
339,054	68,09
339,261	-171,52
339,467	-181,76
339,674	125,44
339,88	113,15
340,087	-189,95
340,293	-1,54
340,5	55,81
340,706	43,52
340,912	-173,57
341,119	-52,74
341,325	39,42
341,532	-65,02
341,738	-89,6
341,944	233,98
342,151	35,33
342,357	-77,31
342,563	88,57
342,77	68,09
342,976	-44,54
343,182	68,09
343,389	-9,73
343,595	20,99
343,801	-67,07
344,007	152,06
344,214	-200,19
344,42	61,95
344,626	-19,97
344,832	-153,09
345,039	-48,64
345,245	74,24
345,451	12,8
345,657	-81,41
345,864	-44,54
346,07	100,86
346,276	61,95
346,482	133,63
346,688	152,06
346,894	-26,11
347,1	123,39
347,307	-19,97
347,513	205,31
347,719	47,62
347,925	78,33
348,131	-155,13
348,337	53,76
348,543	-73,21
348,749	-138,75
348,955	119,29
349,161	-155,13
349,367	135,68
349,573	285,18
349,779	-15,87
349,985	0,51
350,191	-15,87
350,397	207,36
350,603	88,57
350,809	-5,63
351,015	123,39
351,221	-7,68
351,427	18,94
351,633	86,53
351,839	219,64
352,045	137,73
352,251	90,62
352,457	-71,17
352,663	80,38
352,869	-50,69
353,075	-17,92
353,28	-69,12
353,486	23,04
353,692	33,28
353,898	14,85
354,104	-42,5
354,31	150,01
354,515	-146,94
354,721	29,18
354,927	-122,37
355,133	166,4
355,339	-3,58
355,544	-42,5
355,75	92,67
355,956	82,43
356,162	90,62
356,367	-128,51
356,573	92,67
356,779	41,47
356,984	182,78
357,19	154,11
357,396	-3,58
357,602	403,96
357,807	74,24
358,013	10,75
358,218	31,23
358,424	-17,92
358,63	-110,08
358,835	59,9
359,041	-79,36
359,247	59,9
359,452	-52,74
359,658	-54,78
359,863	2,56
360,069	96,77
360,274	70,14
360,48	86,53
360,685	-5,63
360,891	246,27
361,097	18,94
361,302	-105,98
361,508	127,49
361,713	70,14
361,918	365,05
362,124	10,75
362,329	35,33
362,535	100,86
362,74	14,85
362,946	-5,63
363,151	-58,88
363,357	59,9
363,562	-73,21
363,767	-110,08
363,973	43,52
364,178	-105,98
364,383	-50,69
364,589	-38,4
364,794	-124,41
365	180,73
365,205	154,11
365,41	-93,69
365,615	47,62
365,821	-79,36
366,026	236,03
366,231	84,48
366,437	162,3
366,642	-173,57
366,847	311,8
367,052	-34,3
367,258	-103,93
367,463	-30,21
367,668	10,75
367,873	80,38
368,078	84,48
368,284	-269,82
368,489	37,38
368,694	-9,73
368,899	-34,3
369,104	154,11
369,309	57,86
369,515	-54,78
369,72	51,71
369,925	-22,02
370,13	133,63
370,335	68,09
370,54	29,18
370,745	104,96
370,95	92,67
371,155	35,33
371,36	33,28
371,565	248,32
371,77	156,16
371,975	-87,55
372,18	96,77
372,385	190,97
372,59	227,84
372,795	25,09
373	43,52
373,205	190,97
373,41	117,25
373,615	-83,45
373,82	-173,57
374,025	20,99
374,23	-175,61
374,435	-38,4
374,64	-81,41
374,845	199,16
375,05	125,44
375,254	-9,73
375,459	-71,17
375,664	-75,26
375,869	78,33
376,074	-198,14
376,279	-128,51
376,483	131,58
376,688	-79,36
376,893	-38,4
377,098	-83,45
377,303	139,77
377,507	107,01
377,712	43,52
377,917	80,38
378,122	190,97
378,326	68,09
378,531	-136,7
378,736	-54,78
378,94	-60,93
379,145	47,62
379,35	45,57
379,554	-11,78
379,759	-99,84
379,964	125,44
380,168	-185,85
380,373	-19,97
380,578	363
380,782	416,25
380,987	68,09
381,191	-138,75
381,396	160,25
381,601	98,81
381,805	47,62
382,01	166,4
382,214	225,79
382,419	70,14
382,623	-15,87
382,828	2,56
383,032	43,52
383,237	-124,41
383,441	-97,79
383,646	115,2
383,85	-120,32
384,055	166,4
384,259	-56,83
384,464	-108,03
384,668	-38,4
384,872	45,57
385,077	25,09
385,281	-19,97
385,486	-50,69
385,69	145,92
385,894	92,67
386,099	131,58
386,303	41,47
386,507	180,73
386,712	53,76
386,916	-69,12
387,12	-46,59
387,325	283,13
387,529	43,52
387,733	57,86
387,937	-28,16
388,142	20,99
388,346	-146,94
388,55	-5,63
388,754	98,81
388,959	-22,02
389,163	-11,78
389,367	-95,74
389,571	-65,02
389,775	256,51
389,98	-58,88
390,184	33,28
390,388	-19,97
390,592	70,14
390,796	25,09
391	41,47
391,204	27,14
391,409	35,33
391,613	-46,59
391,817	-58,88
392,021	78,33
392,225	90,62
392,429	-62,98
392,633	8,7
392,837	61,95
393,041	66,05
393,245	49,66
393,449	-206,33
393,653	41,47
393,857	166,4
394,061	131,58
394,265	0,51
394,469	76,29
394,673	182,78
394,877	98,81
395,081	16,9
395,285	252,41
395,489	78,33
395,693	6,66
395,896	-32,26
396,1	221,69
396,304	150,01
396,508	-169,47
396,712	-30,21
396,916	-34,3
397,12	43,52
397,323	-58,88
397,527	-13,82
397,731	256,51
397,935	131,58
398,139	-5,63
398,342	137,73
398,546	164,35
398,75	-65,02
398,954	31,23
399,157	207,36
399,361	217,6
399,565	-71,17
399,769	127,49
399,972	37,38
400,176	61,95
400,38	90,62
400,583	51,71
400,787	100,86
400,991	182,78
401,194	168,45
401,398	117,25
401,601	82,43
401,805	150,01
402,009	92,67
402,212	94,72
402,416	317,95
402,619	-48,64
402,823	365,05
403,026	-34,3
403,23	-52,74
403,433	346,62
403,637	221,69
403,841	131,58
404,044	35,33
404,247	33,28
404,451	125,44
404,654	246,27
404,858	150,01
405,061	100,86
405,265	150,01
405,468	186,88
405,672	-13,82
405,875	338,43
406,078	53,76
406,282	16,9
406,485	-22,02
406,689	281,08
406,892	416,25
407,095	66,05
407,299	37,38
407,502	240,12
407,705	49,66
407,909	55,81
408,112	127,49
408,315	379,39
408,518	406,01
408,722	154,11
408,925	143,87
409,128	367,1
409,331	209,4
409,535	180,73
409,738	188,93
409,941	537,08
410,144	244,22
410,347	340,47
410,551	238,08
410,754	223,74
410,957	326,14
411,16	84,48
411,363	233,98
411,566	283,13
411,769	342,52
411,973	164,35
412,176	408,06
412,379	541,18
412,582	535,03
412,785	315,9
412,988	123,39
413,191	352,76
413,394	416,25
413,597	193,02
413,8	238,08
414,003	549,37
414,206	336,38
414,409	444,92
414,612	340,47
414,815	434,68
415,018	434,68
415,221	369,15
415,424	455,16
415,627	606,71
415,83	479,74
416,033	520,7
416,235	348,67
416,438	600,57
416,641	645,62
416,844	481,78
417,047	307,71
417,25	352,76
417,453	471,54
417,655	399,87
417,858	549,37
418,061	475,64
418,264	569,85
418,467	420,35
418,669	510,46
418,872	836,08
419,075	520,7
419,278	565,75
419,48	586,23
419,683	750,07
419,886	569,85
420,089	565,75
420,291	739,83
420,494	588,28
420,697	684,53
420,899	752,12
421,102	571,9
421,305	899,57
421,507	803,32
421,71	870,9
421,912	772,6
422,115	825,84
422,318	1063,41
422,52	975,35
422,723	856,56
422,925	1212,91
423,128	1368,56
423,33	786,93
423,533	956,91
423,735	1087,98
423,938	1149,42
424,14	1065,46
424,343	1255,92
424,545	1429,99
424,748	1360,36
424,95	1208,81
425,153	1274,35
425,355	1448,43
425,558	1743,33
425,76	1554,92
425,962	1501,67
426,165	1540,58
426,367	1765,86
426,57	1645,03
426,772	1665,51
426,974	1974,75
427,177	1667,56
427,379	1718,76
427,581	1913,31
427,784	1772
427,986	1919,46
428,188	1976,8
428,39	2032,1
428,593	2212,32
428,795	2562,52
428,997	2343,39
429,2	2306,52
429,402	2705,88
429,604	2384,35
429,806	2435,55
430,008	2822,61
430,211	2832,85
430,413	2752,98
430,615	2775,51
430,817	3160,53
431,019	3201,49
431,221	3365,32
431,423	3004,88
431,626	3307,98
431,828	3348,94
432,03	3295,69
432,232	3418,57
432,434	3838,41
432,636	3916,23
432,838	3799,49
433,04	4106,69
433,242	4182,46
433,444	4069,83
433,646	4594,11
433,848	4391,36
434,05	4583,87
434,252	4497,85
434,454	4979,12
434,656	4768,18
434,858	5171,63
435,06	5142,96
435,262	5327,28
435,464	5675,43
435,666	5841,32
435,868	5990,82
436,07	6281,63
436,271	6363,55
436,473	6056,36
436,675	6910,36
436,877	6392,22
437,079	6566,3
437,281	6943,13
437,482	7190,93
437,684	7520,65
437,886	7358,86
438,088	7606,67
438,29	7700,87
438,491	8157,57
438,693	7930,25
438,895	8444,29
439,097	9496,94
439,298	8913,27
439,5	9146,74
439,702	9218,42
439,903	9326,96
440,105	9937,26
440,307	10416,48
440,508	10443,1
440,71	10963,29
440,912	10905,95
441,113	10834,27
441,315	11290,96
441,517	11446,61
441,718	12177,73
441,92	12241,22
442,121	12163,4
442,323	12828,99
442,524	12884,28
442,726	13351,22
442,928	13435,19
443,129	14113,06
443,331	13519,15
443,532	14289,19
443,734	14797,09
443,935	15440,15
444,136	14778,65
444,338	15984,91
444,539	16214,28
444,741	16339,21
444,942	16828,67
445,144	16912,64
445,345	17899,76
445,546	18090,22
445,748	17854,7
445,949	17836,27
446,151	18323,69
446,352	19282,14
446,553	19601,62
446,755	18929,89
446,956	20992,19
447,157	21119,17
447,359	21293,24
447,56	21643,45
447,761	21756,08
447,962	23105,7
448,164	23765,14
448,365	22249,64
448,566	23728,28
448,767	24092,82
448,969	25483,39
449,17	25229,44
449,371	24649,86
449,572	26718,31
449,773	27076,71
449,974	27826,26
450,176	28016,72
450,377	29456,45
450,578	29933,62
450,779	28569,68
450,98	27783,26
451,181	29640,76
451,382	29964,34
451,583	31488,03
451,784	31453,22
451,986	34527,22
452,187	32233,49
452,388	32884,75
452,589	32088,09
452,79	34869,23
452,991	33548,29
453,192	35940,32
453,393	35770,33
453,594	38391,73
453,795	35928,03
453,995	35987,42
454,196	36927,44
454,397	38617,01
454,598	38571,96
454,799	39501,73
455	40015,77
455,201	40181,66
455,402	40757,14
455,603	40226,71
455,804	43067,25
456,004	44719,96
456,205	42356,6
456,406	42352,51
456,607	42671,99
456,808	44416,86
457,008	43050,86
457,209	43171,69
457,41	47861,54
457,611	45356,88
457,811	45971,27
458,012	46300,99
458,213	47253,29
458,414	46477,11
458,614	46690,1
458,815	46792,5
459,016	46585,66
459,216	48308
459,417	47898,41
459,618	48279,33
459,818	48510,75
460,019	46726,97
460,22	47580,97
460,42	48594,71
460,621	46124,86
460,821	48303,9
461,022	47388,46
461,223	45711,17
461,423	47081,27
461,624	47187,76
461,824	48680,73
462,025	45780,81
462,225	47796,01
462,426	48942,87
462,626	47429,42
462,827	46034,75
463,027	45619,02
463,228	46706,49
463,428	44412,76
463,628	45303,63
463,829	46339,9
464,029	44195,68
464,23	44908,37
464,43	44044,13
464,63	42940,27
464,831	43462,5
465,031	43679,59
465,231	43327,34
465,432	42790,77
465,632	42641,27
465,832	39653,28
466,033	42413,94
466,233	40540,05
466,433	39305,13
466,634	40097,69
466,834	40267,67
467,034	38451,13
467,234	40216,47
467,435	38193,08
467,635	38748,08
467,835	35112,94
468,035	37208,01
468,235	35776,48
468,436	35385,32
468,636	34441,2
468,836	34230,26
469,036	35733,47
469,236	33583,1
469,436	32569,36
469,636	33558,53
469,836	32804,88
470,037	32395,28
470,237	31526,94
470,437	31533,09
470,637	30316,59
470,837	30631,98
471,037	30019,64
471,237	30545,97
471,437	29550,65
471,637	29220,93
471,837	29560,89
472,037	28348,5
472,237	28102,74
472,437	27877,46
472,637	28250,19
472,837	27498,59
473,036	26007,67
473,236	26431,6
473,436	25571,45
473,636	25710,71
473,836	24834,18
474,036	25708,66
474,236	25485,44
474,436	25108,61
474,635	24785,03
474,835	24117,39
475,035	24567,95
475,235	24987,78
475,435	24311,95
475,634	23455,9
475,834	23922,83
476,034	23785,62
476,234	23486,62
476,433	22904,99
476,633	22294,7
476,833	22773,92
477,033	22259,88
477,232	22417,58
477,432	21328,06
477,632	21979,31
477,831	21201,08
478,031	20781,25
478,231	20955,33
478,43	20601,03
478,63	20459,72
478,829	19720,4
479,029	20461,77
479,229	20056,27
479,428	19749,07
479,628	19613,91
479,827	19339,48
480,027	18868,45
480,226	19265,75
480,426	18651,36
480,625	18082,03
480,825	18780,39
481,024	18184,43
481,224	18407,66
481,423	17502,45
481,623	17799,41
481,822	16980,22
482,021	17223,93
482,221	16974,08
482,42	16763,14
482,62	16208,14
482,819	16046,35
483,018	15587,6
483,218	15155,48
483,417	15685,9
483,616	14995,74
483,816	14686,5
484,015	15165,72
484,214	14678,3
484,414	14410,02
484,613	13904,17
484,812	13766,96
485,011	13482,29
485,211	13359,41
485,41	13211,96
485,609	12923,19
485,808	12650,81
486,008	12802,36
486,207	12151,11
486,406	12132,68
486,605	11809,1
486,804	11764,04
487,003	11569,49
487,203	11645,26
487,402	10953,05
487,601	10910,04
487,8	10750,3
487,999	10740,06
488,198	10727,77
488,397	10209,64
488,596	10066,28
488,795	10010,98
488,994	9984,36
489,193	9582,96
489,392	9826,67
489,591	9353,59
489,79	9167,22
489,989	9177,46
490,188	8751,48
490,387	9062,77
490,586	8636,8
490,785	8630,65
490,984	8192,39
491,183	8237,44
491,382	8245,63
491,581	7952,77
491,779	7721,35
491,978	7786,89
492,177	7874,95
492,376	7621
492,575	7008,66
492,774	7238,03
492,972	7008,66
493,171	6936,98
493,37	6578,59
493,569	7330,19
493,768	6932,89
493,966	6746,52
494,165	6275,49
494,364	6932,89
494,563	6363,55
494,761	6175,14
494,96	6076,84
495,159	6109,6
495,357	5804,46
495,556	5820,84
495,755	5630,38
495,953	5697,96
496,152	5501,36
496,35	5425,58
496,549	5317,04
496,748	5308,85
496,946	5269,94
497,145	5108,15
497,343	4872,63
497,542	4745,66
497,74	4866,49
497,939	4762,04
498,137	4577,72
498,336	4520,38
498,534	4690,36
498,733	4303,29
498,931	4178,37
499,13	4041,15
499,328	4202,94
499,527	4139,46
499,725	3733,96
499,924	4078,02
500,122	3701,19
500,32	3848,65
500,519	3746,25
500,717	3643,85
500,915	3529,16
501,114	3574,22
501,312	3350,99
501,51	3344,84
501,709	3406,28
501,907	3326,41
502,105	3021,27
502,304	3111,38
502,502	3252,69
502,7	3082,7
502,898	2974,16
503,097	3062,23
503,295	2922,96
503,493	2810,33
503,691	2836,95
503,889	2693,59
504,088	2583
504,286	2777,56
504,484	2695,64
504,682	2707,93
504,88	2738,65
505,078	2607,58
505,276	2408,92
505,474	2755,03
505,672	2400,73
505,871	2460,12
506,069	2320,86
506,267	2314,72
506,465	2472,41
506,663	2165,21
506,861	2009,57
507,059	2294,24
507,257	2152,93
507,455	1954,27
507,653	2101,73
507,851	2222,56
508,049	1839,59
508,246	2087,39
508,444	1868,26
508,642	2050,53
508,84	2011,62
509,038	1821,16
509,236	1958,37
509,434	1751,53
509,632	1950,18
509,829	1735,14
510,027	1698,28
510,225	1815,01
510,423	1749,48
510,621	1714,66
510,818	1661,41
511,016	1679,85
511,214	1737,19
511,412	1681,89
511,609	1581,54
511,807	1743,33
512,005	1624,55
512,203	1530,34
512,4	1481,19
512,598	1579,5
512,796	1493,48
512,993	1350,12
513,191	1386,99
513,389	1528,3
513,586	1563,11
513,784	1337,84
513,981	1403,37
514,179	1438,19
514,377	1305,07
514,574	1499,63
514,772	1360,36
514,969	1481,19
515,167	1206,77
515,364	1509,86
515,562	1155,57
515,759	1577,45
515,957	1159,66
516,154	1157,61
516,352	1229,29
516,549	1311,21
516,746	1180,14
516,944	1210,86
517,141	1186,29
517,339	1102,32
517,536	1311,21
517,733	1001,97
517,931	1026,54
518,128	1092,08
518,325	1102,32
518,523	954,87
518,72	1085,94
518,917	1278,44
519,115	1245,68
519,312	1028,59
519,509	1067,5
519,707	1063,41
519,904	954,87
520,101	1092,08
520,298	1026,54
520,495	1204,72
520,693	844,28
520,89	1032,69
521,087	883,19
521,284	1104,37
521,481	1040,88
521,678	940,53
521,876	915,95
522,073	1065,46
522,27	1094,13
522,467	858,61
522,664	745,97
522,861	1034,74
523,058	1124,85
523,255	668,15
523,452	887,28
523,649	874,99
523,846	823,8
524,043	805,36
524,24	819,7
524,437	934,39
524,634	944,63
524,831	678,39
525,028	694,77
525,225	762,36
525,422	889,33
525,619	684,53
525,816	633,33
526,013	1165,81
526,209	950,77
526,406	692,73
526,603	782,84
526,8	596,47
526,997	768,5
527,194	682,49
527,39	707,06
527,587	674,29
527,784	700,92
527,981	631,29
528,177	549,37
528,374	741,88
528,571	1159,66
528,768	485,88
528,964	494,07
529,161	678,39
529,358	899,57
529,554	627,19
529,751	475,64
529,948	524,79
530,144	735,73
530,341	461,3
530,537	592,37
530,734	754,16
530,931	696,82
531,127	659,96
531,324	602,61
531,52	696,82
531,717	616,95
531,913	694,77
532,11	545,27
532,306	676,34
532,503	539,13
532,699	565,75
532,896	674,29
533,092	770,55
533,289	432,63
533,485	922,1
533,682	551,42
533,878	805,36
534,074	584,18
534,271	600,57
534,467	623,09
534,664	631,29
534,86	582,14
535,056	553,46
535,253	578,04
535,449	721,4
535,645	522,74
535,841	522,74
536,038	606,71
536,234	561,66
536,43	756,21
536,626	520,7
536,823	467,45
537,019	584,18
537,215	643,57
537,411	543,22
537,607	594,42
537,804	502,26
538	553,46
538,196	479,74
538,392	410,11
538,588	846,32
538,784	516,6
538,98	301,56
539,176	330,23
539,373	649,72
539,569	680,44
539,765	381,43
539,961	500,22
540,157	709,11
540,353	432,63
540,549	555,51
540,745	434,68
540,941	584,18
541,137	637,43
541,333	455,16
541,528	422,39
541,724	557,56
541,92	647,67
542,116	336,38
542,312	551,42
542,508	395,77
542,704	479,74
542,9	504,31
543,096	453,11
543,291	612,85
543,487	487,93
543,683	430,59
543,879	399,87
544,075	629,24
544,27	449,02
544,466	303,61
544,662	530,94
544,858	565,75
545,053	682,49
545,249	502,26
545,445	485,88
545,64	541,18
545,836	389,63
546,032	313,85
546,227	242,17
546,423	625,14
546,619	424,44
546,814	246,27
547,01	317,95
547,205	436,73
547,401	401,91
547,597	412,15
547,792	285,18
547,988	641,53
548,183	465,4
548,379	571,9
548,574	530,94
548,77	479,74
548,965	432,63
549,161	184,83
549,356	416,25
549,552	483,83
549,747	616,95
549,942	453,11
550,138	363
550,333	453,11
550,529	469,5
550,724	264,7
550,919	406,01
551,115	467,45
551,31	713,21
551,505	360,95
551,701	391,67
551,896	524,79
552,091	688,63
552,287	508,41
552,482	391,67
552,677	475,64
552,872	412,15
553,067	387,58
553,263	420,35
553,458	424,44
553,653	610,81
553,848	350,71
554,043	346,62
554,239	449,02
554,434	653,81
554,629	246,27
554,824	301,56
555,019	420,35
555,214	377,34
555,409	426,49
555,604	449,02
555,799	567,8
555,994	455,16
556,189	330,23
556,384	303,61
556,579	516,6
556,774	541,18
556,969	379,39
557,164	317,95
557,359	567,8
557,554	565,75
557,749	260,6
557,944	287,23
558,139	500,22
558,334	317,95
558,529	334,33
558,724	150,01
558,918	559,61
559,113	451,07
559,308	410,11
559,503	299,52
559,698	258,56
559,893	395,77
560,087	270,84
560,282	86,53
560,477	707,06
560,672	377,34
560,866	262,65
561,061	268,8
561,256	436,73
561,45	545,27
561,645	358,91
561,84	305,66
562,034	446,97
562,229	483,83
562,424	334,33
562,618	256,51
562,813	401,91
563,008	274,94
563,202	338,43
563,397	295,42
563,591	504,31
563,786	451,07
563,98	147,97
564,175	209,4
564,369	449,02
564,564	672,25
564,758	328,19
564,953	260,6
565,147	406,01
565,342	432,63
565,536	246,27
565,731	221,69
565,925	559,61
566,119	330,23
566,314	229,88
566,508	178,69
566,703	471,54
566,897	141,82
567,091	236,03
567,286	258,56
567,48	631,29
567,674	645,62
567,868	143,87
568,063	213,5
568,257	336,38
568,451	276,99
568,646	242,17
568,84	254,46
569,034	127,49
569,228	250,36
569,422	289,28
569,616	113,15
569,811	195,07
570,005	514,55
570,199	215,55
570,393	283,13
570,587	578,04
570,781	313,85
570,975	45,57
571,169	221,69
571,364	496,12
571,558	543,22
571,752	274,94
571,946	207,36
572,14	506,36
572,334	467,45
572,528	229,88
572,722	309,76
572,916	436,73
573,109	502,26
573,303	186,88
573,497	147,97
573,691	571,9
573,885	352,76
574,079	219,64
574,273	111,1
574,467	397,82
574,661	272,89
574,854	190,97
575,048	164,35
575,242	324,09
575,436	379,39
575,63	76,29
575,823	336,38
576,017	354,81
576,211	74,24
576,405	168,45
576,598	68,09
576,792	248,32
576,986	418,3
577,18	270,84
577,373	33,28
577,567	264,7
577,761	356,86
577,954	213,5
578,148	182,78
578,341	276,99
578,535	535,03
578,729	213,5
578,922	178,69
579,116	197,12
579,309	285,18
579,503	205,31
579,696	213,5
579,89	619
580,083	377,34
580,277	164,35
580,47	213,5
580,664	457,21
580,857	233,98
581,051	98,81
581,244	109,05
581,437	344,57
581,631	510,46
581,824	176,64
582,018	262,65
582,211	223,74
582,404	250,36
582,598	113,15
582,791	260,6
582,984	309,76
583,178	623,09
583,371	199,16
583,564	305,66
583,757	426,49
583,951	621,05
584,144	129,53
584,337	205,31
584,53	487,93
584,723	147,97
584,917	166,4
585,11	240,12
585,303	518,65
585,496	633,33
585,689	201,21
585,882	104,96
586,075	342,52
586,268	178,69
586,462	203,26
586,655	139,77
586,848	379,39
587,041	274,94
587,234	279,04
587,427	231,93
587,62	254,46
587,813	117,25
588,006	285,18
588,199	184,83
588,392	424,44
588,585	268,8
588,777	242,17
588,97	82,43
589,163	631,29
589,356	623,09
589,549	182,78
589,742	80,38
589,935	55,81
590,128	223,74
590,32	256,51
590,513	256,51
590,706	311,8
590,899	100,86
591,092	119,29
591,284	121,34
591,477	281,08
591,67	438,78
591,863	205,31
592,055	-5,63
592,248	532,98
592,441	363
592,633	84,48
592,826	156,16
593,019	236,03
593,211	434,68
593,404	29,18
593,596	154,11
593,789	213,5
593,982	412,15
594,174	59,9
594,367	51,71
594,559	350,71
594,752	135,68
594,944	113,15
595,137	141,82
595,329	459,26
595,522	346,62
595,714	199,16
595,907	125,44
596,099	143,87
596,292	244,22
596,484	131,58
596,676	20,99
596,869	477,69
597,061	717,3
597,253	61,95
597,446	10,75
597,638	256,51
597,83	270,84
598,023	137,73
598,215	31,23
598,407	283,13
598,6	25,09
598,792	158,21
598,984	115,2
599,176	252,41
599,369	524,79
599,561	199,16
599,753	90,62
599,945	578,04
600,137	223,74
600,329	162,3
600,522	61,95
600,714	225,79
600,906	100,86
601,098	209,4
601,29	72,19
601,482	367,1
601,674	377,34
601,866	78,33
602,058	135,68
602,25	438,78
602,442	600,57
602,634	76,29
602,826	125,44
603,018	258,56
603,21	416,25
603,402	64
603,594	184,83
603,786	305,66
603,978	453,11
604,17	178,69
604,362	270,84
604,554	309,76
604,745	516,6
604,937	123,39
605,129	209,4
605,321	289,28
605,513	195,07
605,704	221,69
605,896	176,64
606,088	422,39
606,28	268,8
606,471	297,47
606,663	76,29
606,855	102,91
607,047	403,96
607,238	172,54
607,43	211,45
607,622	444,92
607,813	369,15
608,005	180,73
608,197	252,41
608,388	311,8
608,58	213,5
608,771	338,43
608,963	141,82
609,154	295,42
609,346	305,66
609,537	205,31
609,729	-5,63
609,921	289,28
610,112	412,15
610,303	168,45
610,495	82,43
610,686	381,43
610,878	201,21
611,069	4,61
611,261	166,4
611,452	213,5
611,643	229,88
611,835	121,34
612,026	121,34
612,217	367,1
612,409	166,4
612,6	162,3
612,791	109,05
612,983	297,47
613,174	551,42
613,365	131,58
613,557	123,39
613,748	295,42
613,939	385,53
614,13	86,53
614,321	98,81
614,513	539,13
614,704	537,08
614,895	92,67
615,086	-19,97
615,277	291,32
615,468	172,54
615,659	264,7
615,851	51,71
616,042	326,14
616,233	395,77
616,424	111,1
616,615	252,41
616,806	242,17
616,997	-73,21
617,188	55,81
617,379	109,05
617,57	326,14
617,761	334,33
617,952	270,84
618,143	219,64
618,334	233,98
618,524	332,28
618,715	166,4
618,906	59,9
619,097	170,49
619,288	96,77
619,479	211,45
619,67	90,62
619,86	59,9
620,051	254,46
620,242	203,26
620,433	139,77
620,624	487,93
620,814	324,09
621,005	213,5
621,196	264,7
621,386	430,59
621,577	350,71
621,768	199,16
621,958	74,24
622,149	193,02
622,34	168,45
622,53	2,56
622,721	90,62
622,912	469,5
623,102	328,19
623,293	190,97
623,483	184,83
623,674	391,67
623,864	213,5
624,055	27,14
624,245	156,16
624,436	133,63
624,626	201,21
624,817	197,12
625,007	29,18
625,198	88,57
625,388	283,13
625,579	199,16
625,769	125,44
625,959	399,87
626,15	387,58
626,34	115,2
626,531	227,84
626,721	489,98
626,911	143,87
627,101	107,01
627,292	37,38
627,482	233,98
627,672	414,2
627,863	-5,63
628,053	281,08
628,243	416,25
628,433	-26,11
628,623	0,51
628,814	59,9
629,004	270,84
629,194	66,05
629,384	141,82
629,574	-38,4
629,764	387,58
629,955	436,73
630,145	346,62
630,335	131,58
630,525	78,33
630,715	414,2
630,905	223,74
631,095	43,52
631,285	260,6
631,475	223,74
631,665	334,33
631,855	55,81
632,045	59,9
632,235	221,69
632,425	33,28
632,615	-5,63
632,805	236,03
632,994	201,21
633,184	274,94
633,374	125,44
633,564	225,79
633,754	365,05
633,944	158,21
634,133	90,62
634,323	350,71
634,513	283,13
634,703	188,93
634,893	117,25
635,082	350,71
635,272	256,51
635,462	78,33
635,651	205,31
635,841	418,3
636,031	154,11
636,221	90,62
636,41	2,56
636,6	100,86
636,789	320
636,979	121,34
637,169	178,69
637,358	10,75
637,548	291,32
637,737	147,97
637,927	68,09
638,116	330,23
638,306	158,21
638,495	197,12
638,685	90,62
638,874	133,63
639,064	207,36
639,253	186,88
639,443	115,2
639,632	160,25
639,822	145,92
640,011	238,08
640,2	145,92
640,39	324,09
640,579	352,76
640,768	6,66
640,958	72,19
641,147	37,38
641,336	141,82
641,526	145,92
641,715	150,01
641,904	449,02
642,093	43,52
642,283	236,03
642,472	125,44
642,661	84,48
642,85	395,77
643,039	-24,06
643,228	188,93
643,418	225,79
643,607	326,14
643,796	211,45
643,985	74,24
644,174	276,99
644,363	322,04
644,552	119,29
644,741	29,18
644,93	-48,64
645,119	303,61
645,308	-7,68
645,497	107,01
645,686	307,71
645,875	59,9
646,064	14,85
646,253	236,03
646,442	403,96
646,631	82,43
646,82	174,59
647,009	39,42
647,198	320
647,387	115,2
647,575	0,51
647,764	342,52
647,953	252,41
648,142	283,13
648,331	2,56
648,519	84,48
648,708	320
648,897	170,49
649,086	164,35
649,274	43,52
649,463	16,9
649,652	498,17
649,84	131,58
650,029	182,78
650,218	346,62
650,406	256,51
650,595	74,24
650,784	152,06
650,972	238,08
651,161	233,98
651,349	59,9
651,538	225,79
651,726	295,42
651,915	336,38
652,104	127,49
652,292	41,47
652,481	346,62
652,669	645,62
652,857	-56,83
653,046	59,9
653,234	188,93
653,423	360,95
653,611	-7,68
653,8	88,57
653,988	250,36
654,176	78,33
654,365	109,05
654,553	162,3
654,741	432,63
654,93	96,77
655,118	115,2
655,306	61,95
655,494	-15,87
655,683	131,58
655,871	-22,02
656,059	166,4
656,247	104,96
656,436	252,41
656,624	88,57
656,812	78,33
657	119,29
657,188	375,29
657,376	-40,45
657,564	195,07
657,753	61,95
657,941	145,92
658,129	80,38
658,317	172,54
658,505	53,76
658,693	246,27
658,881	-103,93
659,069	86,53
659,257	84,48
659,445	317,95
659,633	164,35
659,821	156,16
660,009	184,83
660,197	123,39
660,384	43,52
660,572	86,53
660,76	133,63
660,948	289,28
661,136	-17,92
661,324	143,87
661,512	428,54
661,699	59,9
661,887	164,35
662,075	258,56
662,263	176,64
662,451	215,55
662,638	158,21
662,826	68,09
663,014	492,02
663,201	293,37
663,389	43,52
663,577	102,91
663,764	311,8
663,952	-48,64
664,14	82,43
664,327	94,72
664,515	436,73
664,702	256,51
664,89	80,38
665,078	12,8
665,265	86,53
665,453	156,16
665,64	-81,41
665,828	41,47
666,015	287,23
666,203	246,27
666,39	49,66
666,578	96,77
666,765	84,48
666,952	557,56
667,14	207,36
667,327	-5,63
667,515	244,22
667,702	242,17
667,889	2,56
668,077	-54,78
668,264	332,28
668,451	346,62
668,638	70,14
668,826	4,61
669,013	215,55
669,2	248,32
669,388	-32,26
669,575	215,55
669,762	-83,45
669,949	371,19
670,136	4528,57
670,323	61,95
670,511	121,34
670,698	215,55
670,885	25,09
671,072	240,12
671,259	117,25
671,446	88,57
671,633	47,62
671,82	-54,78
672,007	-75,26
672,194	236,03
672,381	-7,68
672,568	131,58
672,755	274,94
672,942	213,5
673,129	6,66
673,316	-13,82
673,503	256,51
673,69	113,15
673,877	29,18
674,064	84,48
674,251	225,79
674,437	248,32
674,624	178,69
674,811	41,47
674,998	158,21
675,185	166,4
675,372	135,68
675,558	49,66
675,745	248,32
675,932	281,08
676,119	-52,74
676,305	166,4
676,492	383,48
676,679	119,29
676,865	96,77
677,052	139,77
677,239	43,52
677,425	197,12
677,612	55,81
677,798	111,1
677,985	289,28
678,172	276,99
678,358	43,52
678,545	43,52
678,731	205,31
678,918	31,23
679,104	-30,21
679,291	223,74
679,477	92,67
679,664	225,79
679,85	-65,02
680,036	92,67
680,223	-62,98
680,409	186,88
680,596	61,95
680,782	162,3
680,968	358,91
681,155	150,01
681,341	57,86
681,527	68,09
681,714	168,45
681,9	162,3
682,086	-22,02
682,272	-15,87
682,459	47,62
682,645	336,38
682,831	41,47
683,017	104,96
683,204	449,02
683,39	180,73
683,576	111,1
683,762	25,09
683,948	150,01
684,134	-112,13
684,32	68,09
684,506	18,94
684,693	416,25
684,879	51,71
685,065	-40,45
685,251	-79,36
685,437	8,7
685,623	172,54
685,809	119,29
685,995	59,9
686,181	131,58
686,366	64
686,552	-81,41
686,738	-97,79
686,924	219,64
687,11	115,2
687,296	100,86
687,482	23,04
687,668	100,86
687,853	-30,21
688,039	-24,06
688,225	-36,35
688,411	139,77
688,597	403,96
688,782	98,81
688,968	-60,93
689,154	152,06
689,34	481,78
689,525	139,77
689,711	-146,94
689,897	555,51
690,082	203,26
690,268	-40,45
690,454	-65,02
690,639	180,73
690,825	375,29
691,01	135,68
691,196	-34,3
691,381	260,6
691,567	123,39
691,753	-5,63
691,938	-79,36
692,124	51,71
692,309	66,05
692,494	-62,98
692,68	-48,64
692,865	41,47
693,051	246,27
693,236	45,57
693,422	16,9
693,607	39,42
693,792	145,92
693,978	-9,73
694,163	-58,88
694,348	129,53
694,534	256,51
694,719	10,75
694,904	-99,84
695,089	246,27
695,275	82,43
695,46	-161,28
695,645	-22,02
695,83	82,43
696,016	70,14
696,201	-36,35
696,386	4,61
696,571	223,74
696,756	49,66
696,941	82,43
697,126	-161,28
697,311	10,75
697,497	352,76
697,682	90,62
697,867	-17,92
698,052	217,6
698,237	299,52
698,422	-67,07
698,607	-5,63
698,792	117,25
698,977	137,73
699,162	154,11
699,347	4,61
699,531	268,8
699,716	186,88
699,901	51,71
700,086	59,9
700,271	184,83
700,456	358,91
700,641	-48,64
700,825	-91,65
701,01	410,11
701,195	248,32
701,38	51,71
701,565	-17,92
701,749	154,11
701,934	59,9
702,119	6,66
702,303	-124,41
702,488	137,73
702,673	336,38
702,857	-34,3
703,042	-93,69
703,227	193,02
703,411	107,01
703,596	197,12
703,78	10,75
703,965	115,2
704,15	88,57
704,334	92,67
704,519	-116,22
704,703	80,38
704,888	45,57
705,072	8,7
705,257	-48,64
705,441	-5,63
705,625	629,24
705,81	-36,35
705,994	-73,21
706,179	219,64
706,363	221,69
706,547	-15,87
706,732	160,25
706,916	219,64
707,1	61,95
707,285	14,85
707,469	109,05
707,653	104,96
707,837	158,21
708,022	-22,02
708,206	145,92
708,39	-34,3
708,574	207,36
708,759	41,47
708,943	-40,45
709,127	238,08
709,311	178,69
709,495	-65,02
709,679	-1,54
709,863	139,77
710,047	225,79
710,231	49,66
710,415	-144,89
710,6	236,03
710,784	-11,78
710,968	184,83
711,152	-22,02
711,336	141,82
711,519	395,77
711,703	-52,74
711,887	47,62
712,071	72,19
712,255	41,47
712,439	289,28
712,623	64
712,807	123,39
712,991	262,65
713,174	-36,35
713,358	59,9
713,542	195,07
713,726	188,93
713,91	82,43
714,093	-1,54
714,277	125,44
714,461	276,99
714,645	-89,6
714,828	-91,65
715,012	33,28
715,196	51,71
715,379	-30,21
715,563	-22,02
715,747	172,54
715,93	156,16
716,114	-38,4
716,297	-77,31
716,481	47,62
716,664	190,97
716,848	-146,94
717,031	18,94
717,215	-17,92
717,398	182,78
717,582	-62,98
717,765	96,77
717,949	-62,98
718,132	211,45
718,316	-192
718,499	-161,28
718,682	317,95
718,866	14,85
719,049	-42,5
719,233	-85,5
719,416	242,17
719,599	307,71
719,782	-116,22
719,966	-161,28
720,149	-22,02
720,332	311,8
720,515	-183,81
720,699	-65,02
720,882	176,64
721,065	141,82
721,248	2,56
721,431	-71,17
721,615	-9,73
721,798	313,85
721,981	-17,92
722,164	-146,94
722,347	160,25
722,53	465,4
722,713	-87,55
722,896	-91,65
723,079	123,39
723,262	154,11
723,445	223,74
723,628	-140,8
723,811	94,72
723,994	104,96
724,177	-15,87
724,36	-62,98
724,543	180,73
724,726	2,56
724,909	-79,36
725,091	225,79
725,274	-22,02
725,457	8,7
725,64	-136,7
725,823	-118,27
726,006	-103,93
726,188	8,7
726,371	156,16
726,554	-58,88
726,737	133,63
726,919	107,01
727,102	31,23
727,285	-79,36
727,467	164,35
727,65	174,59
727,833	-136,7
728,015	-62,98
728,198	33,28
728,38	55,81
728,563	-56,83
728,746	-142,85
728,928	68,09
729,111	82,43
729,293	-40,45
729,476	96,77
729,658	53,76
729,841	39,42
730,023	45,57
730,205	-161,28
730,388	59,9
730,57	207,36
730,753	-75,26
730,935	-28,16
731,117	340,47
731,3	59,9
731,482	-116,22
731,664	27,14
731,847	160,25
732,029	195,07
732,211	31,23
732,394	-224,76
732,576	29,18
732,758	285,18
732,94	68,09
733,122	-40,45
733,305	422,39
733,487	25,09
733,669	88,57
733,851	-91,65
734,033	270,84
734,215	143,87
734,397	33,28
734,58	35,33
734,762	84,48
734,944	258,56
735,126	-87,55
735,308	47,62
735,49	-9,73
735,672	-56,83
735,854	-81,41
736,036	-9,73
736,218	381,43
736,399	137,73
736,581	57,86
736,763	86,53
736,945	322,04
737,127	35,33
737,309	150,01
737,491	-62,98
737,672	-5,63
737,854	102,91
738,036	55,81
738,218	-26,11
738,4	-228,86
738,581	172,54
738,763	-65,02
738,945	-87,55
739,127	64
739,308	84,48
739,49	49,66
739,672	-42,5
739,853	223,74
740,035	49,66
740,216	-34,3
740,398	-189,95
740,58	74,24
740,761	182,78
740,943	27,14
741,124	35,33
741,306	117,25
741,487	182,78
741,669	18,94
741,85	-91,65
742,032	240,12
742,213	92,67
742,394	-30,21
742,576	-24,06
742,757	297,47
742,939	281,08
743,12	-89,6
743,301	-144,89
743,483	55,81
743,664	-40,45
743,845	-9,73
744,027	-89,6
744,208	82,43
744,389	178,69
744,57	-105,98
744,752	25,09
744,933	133,63
745,114	78,33
745,295	-50,69
745,476	47,62
745,657	-1,54
745,839	76,29
746,02	-11,78
746,201	92,67
746,382	254,46
746,563	432,63
746,744	-50,69
746,925	-138,75
747,106	45,57
747,287	209,4
747,468	-58,88
747,649	68,09
747,83	170,49
748,011	248,32
748,192	0,51
748,373	-77,31
748,554	-69,12
748,735	162,3
748,915	-138,75
749,096	-128,51
749,277	205,31
749,458	281,08
749,639	-26,11
749,82	41,47
750	-26,11
750,181	248,32
750,362	-73,21
750,543	84,48
750,723	213,5
750,904	84,48
751,085	-101,89
751,265	-38,4
751,446	141,82
751,627	104,96
751,807	-69,12
751,988	-30,21
752,169	215,55
752,349	86,53
752,53	-79,36
752,71	-138,75
752,891	367,1
753,071	186,88
753,252	-175,61
753,432	0,51
753,613	184,83
753,793	133,63
753,974	-142,85
754,154	-17,92
754,334	317,95
754,515	12,8
754,695	152,06
754,876	51,71
755,056	485,88
755,236	76,29
755,417	-40,45
755,597	51,71
755,777	2,56
755,957	246,27
756,138	-81,41
756,318	-19,97
756,498	107,01
756,678	168,45
756,859	147,97
757,039	-116,22
757,219	219,64
757,399	55,81
757,579	-30,21
757,759	-122,37
757,939	-124,41
758,119	236,03
758,3	33,28
758,48	-54,78
758,66	51,71
758,84	-110,08
759,02	-19,97
759,2	-235
759,38	80,38
759,56	291,32
759,74	-171,52
759,919	-144,89
760,099	260,6
760,279	217,6
760,459	-30,21
760,639	-93,69
760,819	182,78
760,999	-192
761,178	-134,65
761,358	-95,74
761,538	-15,87
761,718	-17,92
761,898	-187,9
762,077	-91,65
762,257	135,68
762,437	125,44
762,616	-95,74
762,796	-97,79
762,976	195,07
763,155	0,51
763,335	-116,22
763,515	-118,27
763,694	236,03
763,874	-36,35
764,053	0,51
764,233	-32,26
764,413	86,53
764,592	127,49
764,772	8,7
764,951	-48,64
765,131	4,61
765,31	209,4
765,489	35,33
765,669	-73,21
765,848	295,42
766,028	20,99
766,207	-159,23
766,386	-114,17
766,566	18,94
766,745	139,77
766,924	0,51
767,104	-130,56
767,283	-15,87
767,462	270,84
767,642	-1,54
767,821	-128,51
768	-101,89
768,179	74,24
768,358	-15,87
768,538	-62,98
768,717	6,66
768,896	29,18
769,075	51,71
769,254	-220,67
769,433	213,5
769,612	240,12
769,791	-169,47
769,97	-142,85
770,149	117,25
770,328	-93,69
770,507	-65,02
770,686	-148,99
770,865	188,93
771,044	107,01
771,223	-181,76
771,402	-108,03
771,581	117,25
771,76	-79,36
771,939	2,56
772,118	-99,84
772,297	55,81
772,475	41,47
772,654	53,76
772,833	-32,26
773,012	401,91
773,191	215,55
773,369	43,52
773,548	0,51
773,727	-157,18
773,906	393,72
774,084	-30,21
774,263	-73,21
774,442	78,33
774,62	-46,59
774,799	-144,89
774,977	12,8
775,156	229,88
775,335	207,36
775,513	-56,83
775,692	-192
775,87	567,8
776,049	-3,58
776,227	-97,79
776,406	-144,89
776,584	-7,68
776,763	248,32
776,941	-216,57
777,119	-71,17
777,298	10,75
777,476	229,88
777,655	-122,37
777,833	-177,66
778,011	207,36
778,19	164,35
778,368	-56,83
778,546	-114,17
778,725	223,74
778,903	-24,06
779,081	-44,54
779,259	-171,52
779,437	125,44
779,616	23,04
779,794	-81,41
779,972	-95,74
780,15	88,57
780,328	-13,82
780,506	-112,13
780,685	-62,98
780,863	-15,87
781,041	-114,17
781,219	-65,02
781,397	-40,45
781,575	86,53
781,753	66,05
781,931	-108,03
782,109	-93,69
782,287	16,9
782,465	78,33
782,643	-85,5
782,82	-159,23
782,998	322,04
783,176	168,45
783,354	-194,05
783,532	-62,98
783,71	145,92
783,888	119,29
784,065	-130,56
784,243	-85,5
784,421	92,67
784,599	180,73
784,776	-30,21
784,954	-155,13
785,132	74,24
785,31	-52,74
785,487	-101,89
785,665	-81,41
785,842	104,96
786,02	500,22
786,198	-171,52
786,375	-200,19
786,553	117,25
786,73	39,42
786,908	-218,62
787,085	-79,36
787,263	35,33
787,44	18,94
787,618	-24,06
787,795	-224,76
787,973	-175,61
788,15	125,44
788,328	-161,28
788,505	-24,06
788,682	172,54
788,86	12,8
789,037	-26,11
789,215	-81,41
789,392	-56,83
789,569	270,84
789,746	-26,11
789,924	-169,47
790,101	299,52
790,278	244,22
790,455	-200,19
790,633	-134,65
790,81	115,2
790,987	-65,02
791,164	-99,84
791,341	-60,93
791,518	-71,17
791,695	184,83
791,873	-165,37
792,05	-171,52
792,227	-3,58
792,404	35,33
792,581	-71,17
792,758	-46,59
792,935	-46,59
793,112	182,78
793,289	-91,65
793,466	-24,06
793,643	-83,45
793,82	-136,7
793,996	-101,89
794,173	-56,83
794,35	-200,19
794,527	305,66
794,704	59,9
794,881	-198,14
795,057	45,57
795,234	-91,65
795,411	-13,82
795,588	-116,22
795,765	-122,37
795,941	10,75
796,118	-194,05
796,295	-101,89
796,471	137,73
796,648	-75,26
796,825	96,77
797,001	-87,55
797,178	289,28
797,354	221,69
797,531	-112,13
797,708	-192
797,884	383,48
798,061	-1,54
798,237	-210,43
798,414	-204,28
798,59	176,64
798,767	143,87
798,943	-175,61
799,119	-116,22
799,296	31,23
799,472	57,86
799,649	-116,22
799,825	-36,35
800,001	-54,78
800,178	-128,51
800,354	76,29
800,53	-153,09
800,707	-114,17
800,883	-38,4
801,059	-26,11
801,235	213,5
801,411	51,71
801,588	-161,28
801,764	-3,58
801,94	-239,1
802,116	-38,4
802,292	-60,93
802,468	-136,7
802,645	-122,37
802,821	201,21
802,997	145,92
803,173	-181,76
803,349	-196,09
803,525	-77,31
803,701	10,75
803,877	-58,88
804,053	-60,93
804,229	84,48
804,405	135,68
804,581	-157,18
804,756	-220,67
804,932	-97,79
805,108	-15,87
805,284	-214,52
805,46	-142,85
805,636	31,23
805,812	49,66
805,987	-138,75
806,163	-187,9
806,339	2744,79
806,515	-165,37
806,69	-169,47
806,866	-165,37
807,042	113,15
807,217	78,33
807,393	-114,17
807,569	-269,82
807,744	348,67
807,92	420,35
808,096	-153,09
808,271	-161,28
808,447	94,72
808,622	8,7
808,798	-79,36
808,973	-251,39
809,149	154,11
809,324	150,01
809,5	-226,81
809,675	-202,24
809,851	-22,02
810,026	96,77
810,201	-69,12
810,377	-118,27
810,552	25,09
810,728	156,16
810,903	-48,64
811,078	-165,37
811,253	74,24
811,429	-148,99
811,604	-204,28
811,779	-52,74
811,955	113,15
812,13	-73,21
812,305	-134,65
812,48	-259,58
812,655	184,83
812,83	225,79
813,006	-210,43
813,181	-146,94
813,356	-87,55
813,531	-77,31
813,706	-60,93
813,881	-202,24
814,056	-120,32
814,231	236,03
814,406	-204,28
814,581	-265,72
814,756	147,97
814,931	-5,63
815,106	-116,22
815,281	-81,41
815,456	285,18
815,631	-17,92
815,805	-169,47
815,98	-200,19
816,155	10,75
816,33	100,86
816,505	-220,67
816,68	-95,74
816,854	-116,22
817,029	76,29
817,204	-171,52
817,379	-114,17
817,553	160,25
817,728	16,9
817,903	-110,08
818,077	-87,55
818,252	115,2
818,427	166,4
818,601	-153,09
818,776	-251,39
818,95	8,7
819,125	168,45
819,299	-99,84
819,474	-128,51
819,648	33,28
819,823	254,46
819,997	-89,6
820,172	-298,49
820,346	76,29
820,521	31,23
820,695	-169,47
820,87	-232,96
821,044	-95,74
821,218	51,71
821,393	18,94
821,567	-296,44
821,741	-99,84
821,916	49,66
822,09	-128,51
822,264	-196,09
822,438	-165,37
822,613	-69,12
822,787	-73,21
822,961	-134,65
823,135	176,64
823,309	20,99
823,483	-218,62
823,658	-126,46
823,832	141,82
824,006	-245,24
824,18	-161,28
824,354	-194,05
824,528	-15,87
824,702	154,11
824,876	-128,51
825,05	-101,89
825,224	78,33
825,398	107,01
825,572	-212,48
825,746	-239,1
825,92	256,51
826,093	-1,54
826,267	-40,45
826,441	-122,37
826,615	313,85
826,789	240,12
826,963	-155,13
827,136	-69,12
827,31	66,05
827,484	-42,5
827,658	-187,9
827,831	-224,76
828,005	55,81
828,179	-124,41
828,353	-71,17
828,526	-185,85
828,7	37,38
828,873	-198,14
829,047	-146,94
829,221	-232,96
829,394	12,8
829,568	76,29
829,741	-247,29
829,915	-226,81
830,088	201,21
830,262	315,9
830,435	-222,72
830,609	-89,6
830,782	25,09
830,956	113,15
831,129	-13,82
831,302	-245,24
831,476	37,38
831,649	-118,27
831,822	-7,68
831,996	-79,36
832,169	256,51
832,342	-112,13
832,516	-153,09
832,689	-247,29
832,862	92,67
833,035	320
833,209	16,9
833,382	-120,32
833,555	-179,71
833,728	-85,5
833,901	-171,52
834,074	-132,61
834,247	14,85
834,42	123,39
834,594	-212,48
834,767	-56,83
834,94	186,88
835,113	238,08
835,286	-44,54
835,459	-122,37
835,632	4,61
835,805	-75,26
835,977	-99,84
836,15	-9,73
836,323	-65,02
836,496	109,05
836,669	-79,36
836,842	-185,85
837,015	209,4
837,188	37,38
837,36	-134,65
837,533	-83,45
837,706	111,1
837,879	270,84
838,051	-194,05
838,224	-136,7
838,397	-7,68
838,569	147,97
838,742	-167,42
838,915	-155,13
839,087	188,93
839,26	170,49
839,433	-130,56
839,605	94,72
839,778	-194,05
839,95	211,45
840,123	-89,6
840,295	-54,78
840,468	-108,03
840,64	6,66
840,813	-153,09
840,985	-50,69
841,158	94,72
841,33	31,23
841,502	-171,52
841,675	-155,13
841,847	281,08
842,019	84,48
842,192	-185,85
842,364	-155,13
842,536	86,53
842,709	35,33
842,881	-110,08
843,053	-22,02
843,225	-40,45
843,398	188,93
843,57	-44,54
843,742	-56,83
843,914	92,67
844,086	346,62
844,258	-235
844,43	-54,78
844,602	276,99
844,775	-24,06
844,947	-144,89
845,119	-210,43
845,291	305,66
845,463	246,27
845,635	-196,09
845,807	-112,13
845,979	100,86
846,15	10,75
846,322	-128,51
846,494	-167,42
846,666	-69,12
846,838	174,59
847,01	-144,89
847,182	-134,65
847,354	143,87
847,525	147,97
847,697	-192
847,869	-308,73
848,041	127,49
848,212	252,41
848,384	-243,2
848,556	-85,5
848,727	172,54
848,899	-157,18
849,071	-71,17
849,242	-38,4
849,414	203,26
849,585	131,58
849,757	-142,85
849,929	-7,68
850,1	-79,36
850,272	281,08
850,443	-17,92
850,615	-3,58
850,786	92,67
850,958	-40,45
851,129	-54,78
851,3	-44,54
851,472	102,91
851,643	-13,82
851,815	2,56
851,986	39,42
852,157	90,62
852,329	518,65
852,5	-259,58
852,671	66,05
852,842	117,25
853,014	-36,35
853,185	-144,89
853,356	-153,09
853,527	141,82
853,698	102,91
853,87	-56,83
854,041	76,29
854,212	51,71
854,383	98,81
854,554	-85,5
854,725	-79,36
854,896	92,67
855,067	84,48
855,238	-114,17
855,409	-93,69
855,58	14,85
855,751	248,32
855,922	-95,74
856,093	565,75
856,264	-103,93
856,435	51,71
856,606	-153,09
856,777	-118,27
856,948	18,94
857,118	20,99
857,289	-99,84
857,46	129,53
857,631	211,45
857,802	156,16
857,972	-65,02
858,143	45,57
858,314	-73,21
858,484	-99,84
858,655	-163,33
858,826	-83,45
858,996	86,53
859,167	272,89
859,338	-222,72
859,508	-91,65
859,679	49,66
859,849	-9,73
860,02	-222,72
860,19	-112,13
860,361	233,98
860,531	-22,02
860,702	-60,93
860,872	39,42
861,043	-65,02
861,213	240,12
861,384	-112,13
861,554	-79,36
861,724	-142,85
861,895	57,86
862,065	107,01
862,235	-75,26
862,406	123,39
862,576	-9,73
862,746	-192
862,916	-77,31
863,087	332,28
863,257	-24,06
863,427	-218,62
863,597	-118,27
863,767	258,56
863,937	-169,47
864,108	-112,13
864,278	-132,61
864,448	283,13
864,618	197,12
864,788	-267,77
864,958	-42,5
865,128	10,75
865,298	20,99
865,468	-83,45
865,638	-290,3
865,808	168,45
865,978	338,43
866,148	-187,9
866,318	-290,3
866,487	219,64
866,657	39,42
866,827	-30,21
866,997	-189,95
867,167	313,85
867,337	227,84
867,506	-157,18
867,676	-153,09
867,846	-15,87
868,016	121,34
868,185	-245,24
868,355	-34,3
868,525	199,16
868,694	74,24
868,864	-112,13
869,034	-40,45
869,203	121,34
869,373	35,33
869,542	-71,17
869,712	-95,74
869,881	123,39
870,051	-11,78
870,22	-169,47
870,39	-159,23
870,559	-17,92
870,729	-171,52
870,898	-50,69
871,068	-165,37
871,237	-38,4
871,406	-28,16
871,576	-65,02
871,745	-108,03
871,914	18,94
872,084	98,81
872,253	-196,09
872,422	-169,47
872,591	207,36
872,761	-130,56
872,93	12,8
873,099	-130,56
873,268	-34,3
873,437	-124,41
873,607	-235
873,776	-69,12
873,945	47,62
874,114	-13,82
874,283	-132,61
874,452	20,99
874,621	109,05
874,79	160,25
874,959	-58,88
875,128	-75,26
875,297	35,33
875,466	223,74
875,635	-167,42
875,804	-124,41
875,973	-110,08
876,142	279,04
876,31	-220,67
876,479	-118,27
876,648	74,24
876,817	-99,84
876,986	-148,99
877,155	-65,02
877,323	-112,13
877,492	238,08
877,661	-87,55
877,829	31,23
877,998	31,23
878,167	170,49
878,335	-198,14
878,504	-183,81
878,673	-83,45
878,841	-120,32
879,01	-138,75
879,178	-194,05
879,347	96,77
879,515	76,29
879,684	-3,58
879,852	-146,94
880,021	4,61
880,189	139,77
880,358	-93,69
880,526	246,27
880,695	-128,51
880,863	88,57
881,031	-112,13
881,2	-243,2
881,368	-130,56
881,536	338,43
881,705	-177,66
881,873	-85,5
882,041	109,05
882,21	37,38
882,378	-97,79
882,546	-79,36
882,714	18,94
882,882	-5,63
883,05	-95,74
883,219	-93,69
883,387	49,66
883,555	-38,4
883,723	-247,29
883,891	-122,37
884,059	-126,46
884,227	170,49
884,395	-194,05
884,563	-124,41
884,731	72,19
884,899	213,5
885,067	-144,89
885,235	-97,79
885,403	123,39
885,571	121,34
885,739	-282,11
