Data from LED Lampe warmweiss_USB4F035431__0__12-40-47-472.txt Node

Date: Tue Feb 02 12:40:47 CET 2021
User: Praktikum
Spectrometer: USB4F03543
Trigger mode: 4
Integration Time (sec): 1,000000E-1
Scans to average: 1
Electric dark correction enabled: true
Nonlinearity correction enabled: false
Boxcar width: 0
XAxis mode: Wavelengths
Number of Pixels in Spectrum: 3648
>>>>>Begin Spectral Data<<<<<
179,969	-127,14
180,181	-127,14
180,394	-127,14
180,606	-145,58
180,819	-194,73
181,031	5,97
181,243	63,32
181,456	-32,94
181,668	89,94
181,88	26,45
182,093	-71,85
182,305	-92,33
182,518	-10,41
182,73	69,46
182,942	-16,55
183,155	-41,13
183,367	10,07
183,579	-32,94
183,791	77,65
184,004	12,12
184,216	5,97
184,428	-43,18
184,641	38,74
184,853	14,17
185,065	-67,75
185,277	-2,22
185,49	59,22
185,702	-10,41
185,914	-47,27
186,126	30,55
186,338	-16,55
186,551	16,21
186,763	20,31
186,975	20,31
187,187	30,55
187,399	3,93
187,612	3,93
187,824	-57,51
188,036	1,88
188,248	42,84
188,46	5,97
188,672	63,32
188,885	-34,99
189,097	63,32
189,309	5,97
189,521	-2,22
189,733	30,55
189,945	3,93
190,157	46,93
190,369	34,64
190,581	36,69
190,794	14,17
191,006	-61,61
191,218	-75,95
191,43	69,46
191,642	36,69
191,854	-45,23
192,066	20,31
192,278	22,36
192,49	-57,51
192,702	57,17
192,914	46,93
193,126	-18,6
193,338	3,93
193,55	46,93
193,762	10,07
193,974	-12,46
194,186	-37,03
194,398	20,31
194,61	-4,27
194,822	26,45
195,034	32,6
195,246	69,46
195,457	-18,6
195,669	159,57
195,881	-12,46
196,093	53,08
196,305	22,36
196,517	-14,51
196,729	20,31
196,941	28,5
197,153	59,22
197,365	75,6
197,576	-20,65
197,788	38,74
198	-2,22
198,212	126,8
198,424	63,32
198,636	12,12
198,847	-45,23
199,059	46,93
199,271	-45,23
199,483	55,12
199,695	55,12
199,906	3,93
200,118	-4,27
200,33	75,6
200,542	368,46
200,753	44,88
200,965	20,31
201,177	32,6
201,389	63,32
201,6	-80,04
201,812	12,12
202,024	73,56
202,235	8,02
202,447	61,27
202,659	112,47
202,871	-8,36
203,082	55,12
203,294	8,02
203,506	-26,79
203,717	12,12
203,929	32,6
204,141	-10,41
204,352	40,79
204,564	-0,17
204,775	-30,89
204,987	89,94
205,199	65,36
205,41	20,31
205,622	59,22
205,833	61,27
206,045	30,55
206,257	55,12
206,468	26,45
206,68	-22,7
206,891	-20,65
207,103	44,88
207,314	-75,95
207,526	55,12
207,737	-28,84
207,949	-14,51
208,16	55,12
208,372	28,5
208,583	79,7
208,795	20,31
209,006	89,94
209,218	12,12
209,429	-30,89
209,641	20,31
209,852	-32,94
210,064	-2,22
210,275	-55,47
210,487	81,75
210,698	132,95
210,909	153,43
211,121	61,27
211,332	14,17
211,544	-0,17
211,755	83,8
211,966	94,04
212,178	-0,17
212,389	149,33
212,6	28,5
212,812	110,42
213,023	20,31
213,234	30,55
213,446	46,93
213,657	-43,18
213,868	-2,22
214,08	61,27
214,291	79,7
214,502	28,5
214,714	-65,71
214,925	59,22
215,136	18,26
215,347	10,07
215,559	-34,99
215,77	-34,99
215,981	57,17
216,192	-84,14
216,404	77,65
216,615	26,45
216,826	73,56
217,037	14,17
217,249	96,08
217,46	61,27
217,671	57,17
217,882	-34,99
218,093	14,17
218,304	14,17
218,516	5,97
218,727	14,17
218,938	-16,55
219,149	79,7
219,36	71,51
219,571	1,88
219,782	-16,55
219,993	46,93
220,205	-2,22
220,416	55,12
220,627	46,93
220,838	96,08
221,049	126,8
221,26	108,37
221,471	42,84
221,682	12,12
221,893	40,79
222,104	-26,79
222,315	-10,41
222,526	-10,41
222,737	10,07
222,948	30,55
223,159	116,56
223,37	-18,6
223,581	8,02
223,792	-22,7
224,003	75,6
224,214	89,94
224,425	10,07
224,636	-8,36
224,847	114,52
225,058	3,93
225,269	38,74
225,48	-71,85
225,691	57,17
225,902	18,26
226,112	40,79
226,323	-26,79
226,534	8,02
226,745	-18,6
226,956	69,46
227,167	63,32
227,378	104,28
227,589	38,74
227,799	36,69
228,01	53,08
228,221	-6,31
228,432	30,55
228,643	-67,75
228,853	81,75
229,064	3,93
229,275	3,93
229,486	-14,51
229,697	34,64
229,907	36,69
230,118	5,97
230,329	-18,6
230,54	8,02
230,75	32,6
230,961	67,41
231,172	-22,7
231,383	-26,79
231,593	83,8
231,804	-24,75
232,015	48,98
232,225	5,97
232,436	10,07
232,647	87,89
232,857	67,41
233,068	14,17
233,279	106,32
233,489	53,08
233,7	51,03
233,91	28,5
234,121	-30,89
234,332	18,26
234,542	1,88
234,753	3,93
234,964	98,13
235,174	-18,6
235,385	26,45
235,595	-12,46
235,806	59,22
236,016	-0,17
236,227	26,45
236,437	-20,65
236,648	14,17
236,858	28,5
237,069	55,12
237,279	12,12
237,49	-14,51
237,7	-2,22
237,911	-18,6
238,121	-28,84
238,332	-0,17
238,542	-45,23
238,753	32,6
238,963	-39,08
239,174	71,51
239,384	14,17
239,595	-20,65
239,805	-61,61
240,015	1,88
240,226	14,17
240,436	-41,13
240,647	55,12
240,857	-22,7
241,067	51,03
241,278	151,38
241,488	-14,51
241,698	38,74
241,909	59,22
242,119	28,5
242,329	63,32
242,54	5,97
242,75	114,52
242,96	-59,56
243,171	-63,66
243,381	28,5
243,591	18,26
243,801	46,93
244,012	159,57
244,222	-18,6
244,432	-47,27
244,642	-90,28
244,853	-39,08
245,063	40,79
245,273	36,69
245,483	77,65
245,694	36,69
245,904	-4,27
246,114	44,88
246,324	36,69
246,534	10,07
246,744	26,45
246,955	-39,08
247,165	22,36
247,375	118,61
247,585	10,07
247,795	75,6
248,005	16,21
248,215	69,46
248,425	61,27
248,636	155,47
248,846	-6,31
249,056	1,88
249,266	-104,62
249,476	1,88
249,686	71,51
249,896	-2,22
250,106	30,55
250,316	-67,75
250,526	89,94
250,736	-18,6
250,946	128,85
251,156	65,36
251,366	-37,03
251,576	61,27
251,786	48,98
251,996	20,31
252,206	-73,9
252,416	32,6
252,626	-14,51
252,836	-67,75
253,046	-53,42
253,256	61,27
253,466	18,26
253,676	-6,31
253,885	63,32
254,095	-2,22
254,305	91,99
254,515	96,08
254,725	-2,22
254,935	5,97
255,145	18,26
255,355	-20,65
255,564	61,27
255,774	20,31
255,984	89,94
256,194	87,89
256,404	10,07
256,614	61,27
256,823	26,45
257,033	77,65
257,243	100,18
257,453	-18,6
257,662	63,32
257,872	14,17
258,082	-10,41
258,292	-82,09
258,501	141,14
258,711	118,61
258,921	126,8
259,131	-6,31
259,34	10,07
259,55	28,5
259,76	55,12
259,969	-16,55
260,179	-20,65
260,389	61,27
260,598	-0,17
260,808	53,08
261,018	57,17
261,227	34,64
261,437	5,97
261,647	81,75
261,856	22,36
262,066	69,46
262,275	132,95
262,485	32,6
262,694	85,84
262,904	36,69
263,114	57,17
263,323	30,55
263,533	-4,27
263,742	-32,94
263,952	26,45
264,161	-63,66
264,371	26,45
264,58	67,41
264,79	77,65
264,999	69,46
265,209	73,56
265,418	-24,75
265,628	110,42
265,837	30,55
266,047	46,93
266,256	91,99
266,466	-61,61
266,675	14,17
266,884	24,4
267,094	100,18
267,303	132,95
267,513	71,51
267,722	75,6
267,931	20,31
268,141	-12,46
268,35	34,64
268,559	42,84
268,769	36,69
268,978	-26,79
269,187	-6,31
269,397	-12,46
269,606	14,17
269,815	-45,23
270,025	40,79
270,234	18,26
270,443	-34,99
270,653	75,6
270,862	22,36
271,071	3,93
271,28	14,17
271,49	12,12
271,699	32,6
271,908	32,6
272,117	69,46
272,327	14,17
272,536	-51,37
272,745	-43,18
272,954	44,88
273,163	63,32
273,372	141,14
273,582	22,36
273,791	87,89
274	-6,31
274,209	-4,27
274,418	98,13
274,627	102,23
274,836	44,88
275,046	40,79
275,255	30,55
275,464	28,5
275,673	-20,65
275,882	3,93
276,091	28,5
276,3	71,51
276,509	36,69
276,718	30,55
276,927	-18,6
277,136	53,08
277,345	79,7
277,554	20,31
277,763	81,75
277,972	46,93
278,181	67,41
278,39	-2,22
278,599	28,5
278,808	10,07
279,017	51,03
279,226	-34,99
279,435	30,55
279,644	26,45
279,853	75,6
280,062	184,15
280,271	30,55
280,48	42,84
280,688	5,97
280,897	87,89
281,106	-6,31
281,315	-43,18
281,524	48,98
281,733	5,97
281,942	40,79
282,151	-43,18
282,359	55,12
282,568	-69,8
282,777	59,22
282,986	-14,51
283,195	75,6
283,403	44,88
283,612	96,08
283,821	36,69
284,03	-14,51
284,238	69,46
284,447	73,56
284,656	-2,22
284,865	69,46
285,073	22,36
285,282	-10,41
285,491	110,42
285,699	-14,51
285,908	81,75
286,117	51,03
286,325	108,37
286,534	135
286,743	-4,27
286,951	-10,41
287,16	24,4
287,369	51,03
287,577	59,22
287,786	34,64
287,995	12,12
288,203	-28,84
288,412	87,89
288,62	55,12
288,829	-4,27
289,037	-75,95
289,246	20,31
289,455	-22,7
289,663	46,93
289,872	57,17
290,08	28,5
290,289	53,08
290,497	-26,79
290,706	104,28
290,914	22,36
291,123	5,97
291,331	42,84
291,54	44,88
291,748	71,51
291,957	26,45
292,165	30,55
292,373	-39,08
292,582	-10,41
292,79	124,76
292,999	67,41
293,207	100,18
293,415	-12,46
293,624	28,5
293,832	-0,17
294,041	55,12
294,249	55,12
294,457	-18,6
294,666	81,75
294,874	-2,22
295,082	169,81
295,291	55,12
295,499	55,12
295,707	63,32
295,915	46,93
296,124	38,74
296,332	83,8
296,54	38,74
296,749	44,88
296,957	-26,79
297,165	8,02
297,373	24,4
297,581	-55,47
297,79	22,36
297,998	-47,27
298,206	-12,46
298,414	30,55
298,622	75,6
298,831	79,7
299,039	5,97
299,247	40,79
299,455	44,88
299,663	96,08
299,871	12,12
300,08	69,46
300,288	28,5
300,496	-10,41
300,704	65,36
300,912	5,97
301,12	38,74
301,328	10,07
301,536	-12,46
301,744	-45,23
301,952	48,98
302,16	-2,22
302,368	-24,75
302,576	46,93
302,784	147,28
302,992	-49,32
303,2	34,64
303,408	28,5
303,616	3,93
303,824	79,7
304,032	79,7
304,24	53,08
304,448	96,08
304,656	16,21
304,864	120,66
305,072	63,32
305,28	46,93
305,488	51,03
305,696	18,26
305,904	46,93
306,111	12,12
306,319	26,45
306,527	46,93
306,735	83,8
306,943	59,22
307,151	71,51
307,359	40,79
307,566	57,17
307,774	67,41
307,982	53,08
308,19	-2,22
308,398	5,97
308,605	30,55
308,813	20,31
309,021	104,28
309,229	-2,22
309,436	-12,46
309,644	18,26
309,852	8,02
310,06	42,84
310,267	63,32
310,475	12,12
310,683	59,22
310,89	110,42
311,098	153,43
311,306	32,6
311,513	42,84
311,721	3,93
311,929	30,55
312,136	79,7
312,344	-43,18
312,552	108,37
312,759	-45,23
312,967	46,93
313,174	-22,7
313,382	30,55
313,589	91,99
313,797	77,65
314,005	22,36
314,212	124,76
314,42	46,93
314,627	32,6
314,835	-18,6
315,042	79,7
315,25	-61,61
315,457	-53,42
315,665	-47,27
315,872	55,12
316,08	116,56
316,287	-34,99
316,495	325,46
316,702	-43,18
316,909	-8,36
317,117	141,14
317,324	-4,27
317,532	87,89
317,739	-14,51
317,946	-0,17
318,154	-71,85
318,361	16,21
318,569	-2,22
318,776	-77,99
318,983	-6,31
319,191	16,21
319,398	-10,41
319,605	85,84
319,813	53,08
320,02	-18,6
320,227	83,8
320,434	55,12
320,642	-39,08
320,849	-20,65
321,056	22,36
321,264	12,12
321,471	63,32
321,678	61,27
321,885	53,08
322,092	22,36
322,3	14,17
322,507	-0,17
322,714	38,74
322,921	55,12
323,128	-24,75
323,336	-22,7
323,543	75,6
323,75	85,84
323,957	12,12
324,164	-34,99
324,371	75,6
324,578	-57,51
324,786	38,74
324,993	63,32
325,2	12,12
325,407	5,97
325,614	28,5
325,821	79,7
326,028	157,52
326,235	96,08
326,442	28,5
326,649	-16,55
326,856	81,75
327,063	-10,41
327,27	-2,22
327,477	-6,31
327,684	-16,55
327,891	-12,46
328,098	96,08
328,305	24,4
328,512	-18,6
328,719	128,85
328,926	124,76
329,133	5,97
329,34	83,8
329,546	89,94
329,753	79,7
329,96	-47,27
330,167	34,64
330,374	53,08
330,581	12,12
330,788	26,45
330,995	94,04
331,201	10,07
331,408	51,03
331,615	-41,13
331,822	38,74
332,029	22,36
332,235	-2,22
332,442	-51,37
332,649	81,75
332,856	36,69
333,062	22,36
333,269	26,45
333,476	42,84
333,683	57,17
333,889	18,26
334,096	89,94
334,303	139,09
334,509	-8,36
334,716	38,74
334,923	102,23
335,129	12,12
335,336	-18,6
335,543	79,7
335,749	8,02
335,956	96,08
336,163	-20,65
336,369	53,08
336,576	18,26
336,782	104,28
336,989	38,74
337,196	-14,51
337,402	18,26
337,609	-22,7
337,815	36,69
338,022	16,21
338,228	22,36
338,435	192,34
338,641	75,6
338,848	120,66
339,054	87,89
339,261	-51,37
339,467	-39,08
339,674	1,88
339,88	30,55
340,087	-4,27
340,293	12,12
340,5	55,12
340,706	26,45
340,912	-12,46
341,119	-0,17
341,325	40,79
341,532	-0,17
341,738	-43,18
341,944	44,88
342,151	14,17
342,357	-14,51
342,563	61,27
342,77	20,31
342,976	53,08
343,182	59,22
343,389	5,97
343,595	-59,56
343,801	-43,18
344,007	69,46
344,214	3,93
344,42	59,22
344,626	-32,94
344,832	5,97
345,039	61,27
345,245	32,6
345,451	30,55
345,657	65,36
345,864	-4,27
346,07	-6,31
346,276	91,99
346,482	130,9
346,688	118,61
346,894	40,79
347,1	26,45
347,307	-6,31
347,513	51,03
347,719	38,74
347,925	61,27
348,131	-45,23
348,337	118,61
348,543	5,97
348,749	-20,65
348,955	26,45
349,161	-65,71
349,367	79,7
349,573	-10,41
349,779	12,12
349,985	-20,65
350,191	-67,75
350,397	46,93
350,603	28,5
350,809	55,12
351,015	3,93
351,221	91,99
351,427	110,42
351,633	61,27
351,839	71,51
352,045	-2,22
352,251	116,56
352,457	73,56
352,663	-0,17
352,869	34,64
353,075	59,22
353,28	-49,32
353,486	71,51
353,692	-6,31
353,898	20,31
354,104	1,88
354,31	104,28
354,515	-10,41
354,721	63,32
354,927	32,6
355,133	89,94
355,339	69,46
355,544	110,42
355,75	118,61
355,956	61,27
356,162	77,65
356,367	8,02
356,573	104,28
356,779	55,12
356,984	137,04
357,19	116,56
357,396	1,88
357,602	96,08
357,807	3,93
358,013	30,55
358,218	28,5
358,424	-6,31
358,63	-4,27
358,835	-4,27
359,041	-4,27
359,247	28,5
359,452	-18,6
359,658	-22,7
359,863	83,8
360,069	110,42
360,274	85,84
360,48	137,04
360,685	22,36
360,891	94,04
361,097	38,74
361,302	53,08
361,508	110,42
361,713	-18,6
361,918	94,04
362,124	-20,65
362,329	3,93
362,535	1,88
362,74	34,64
362,946	79,7
363,151	3,93
363,357	53,08
363,562	-4,27
363,767	-8,36
363,973	-2,22
364,178	51,03
364,383	20,31
364,589	57,17
364,794	-10,41
365	57,17
365,205	-6,31
365,41	-22,7
365,615	91,99
365,821	-77,99
366,026	91,99
366,231	44,88
366,437	94,04
366,642	-59,56
366,847	79,7
367,052	55,12
367,258	34,64
367,463	38,74
367,668	32,6
367,873	151,38
368,078	75,6
368,284	-59,56
368,489	-67,75
368,694	44,88
368,899	38,74
369,104	71,51
369,309	112,47
369,515	5,97
369,72	126,8
369,925	18,26
370,13	12,12
370,335	75,6
370,54	65,36
370,745	38,74
370,95	-73,9
371,155	180,05
371,36	34,64
371,565	26,45
371,77	81,75
371,975	38,74
372,18	55,12
372,385	120,66
372,59	165,71
372,795	22,36
373	42,84
373,205	55,12
373,41	67,41
373,615	-51,37
373,82	18,26
374,025	46,93
374,23	-37,03
374,435	87,89
374,64	124,76
374,845	20,31
375,05	102,23
375,254	55,12
375,459	-10,41
375,664	44,88
375,869	44,88
376,074	36,69
376,279	10,07
376,483	55,12
376,688	-127,14
376,893	67,41
377,098	46,93
377,303	71,51
377,507	79,7
377,712	128,85
377,917	118,61
378,122	96,08
378,326	61,27
378,531	55,12
378,736	-10,41
378,94	59,22
379,145	77,65
379,35	-2,22
379,554	42,84
379,759	10,07
379,964	67,41
380,168	38,74
380,373	100,18
380,578	163,67
380,782	46,93
380,987	75,6
381,191	38,74
381,396	-12,46
381,601	94,04
381,805	85,84
382,01	167,76
382,214	85,84
382,419	137,04
382,623	77,65
382,828	48,98
383,032	-0,17
383,237	-49,32
383,441	18,26
383,646	67,41
383,85	-28,84
384,055	100,18
384,259	12,12
384,464	-16,55
384,668	1,88
384,872	71,51
385,077	81,75
385,281	30,55
385,486	-28,84
385,69	67,41
385,894	194,39
386,099	108,37
386,303	-32,94
386,507	55,12
386,712	91,99
386,916	30,55
387,12	-18,6
387,325	126,8
387,529	40,79
387,733	71,51
387,937	-22,7
388,142	-2,22
388,346	-63,66
388,55	137,04
388,754	36,69
388,959	-2,22
389,163	30,55
389,367	102,23
389,571	69,46
389,775	81,75
389,98	112,47
390,184	67,41
390,388	30,55
390,592	120,66
390,796	53,08
391	96,08
391,204	-45,23
391,409	34,64
391,613	26,45
391,817	22,36
392,021	124,76
392,225	104,28
392,429	-22,7
392,633	22,36
392,837	14,17
393,041	18,26
393,245	22,36
393,449	-4,27
393,653	46,93
393,857	63,32
394,061	96,08
394,265	22,36
394,469	77,65
394,673	46,93
394,877	16,21
395,081	87,89
395,285	145,24
395,489	102,23
395,693	55,12
395,896	5,97
396,1	30,55
396,304	71,51
396,508	10,07
396,712	40,79
396,916	94,04
397,12	83,8
397,323	55,12
397,527	75,6
397,731	65,36
397,935	53,08
398,139	32,6
398,342	46,93
398,546	-24,75
398,75	-4,27
398,954	104,28
399,157	122,71
399,361	67,41
399,565	14,17
399,769	102,23
399,972	87,89
400,176	96,08
400,38	18,26
400,583	-22,7
400,787	71,51
400,991	208,72
401,194	116,56
401,398	116,56
401,601	71,51
401,805	104,28
402,009	98,13
402,212	100,18
402,416	190,29
402,619	-6,31
402,823	112,47
403,026	57,17
403,23	59,22
403,433	175,95
403,637	79,7
403,841	98,13
404,044	46,93
404,247	61,27
404,451	53,08
404,654	159,57
404,858	243,54
405,061	124,76
405,265	16,21
405,468	83,8
405,672	38,74
405,875	104,28
406,078	81,75
406,282	120,66
406,485	38,74
406,689	96,08
406,892	198,48
407,095	94,04
407,299	91,99
407,502	147,28
407,705	5,97
407,909	190,29
408,112	143,19
408,315	137,04
408,518	202,58
408,722	153,43
408,925	204,63
409,128	175,95
409,331	196,43
409,535	253,78
409,738	339,79
409,941	345,94
410,144	182,1
410,347	241,49
410,551	243,54
410,754	218,96
410,957	210,77
411,16	231,25
411,363	247,63
411,566	315,22
411,769	259,92
411,973	218,96
412,176	388,94
412,379	288,59
412,582	358,22
412,785	362,32
412,988	259,92
413,191	311,12
413,394	339,79
413,597	302,93
413,8	360,27
414,003	544,59
414,206	333,65
414,409	440,14
414,612	364,37
414,815	362,32
415,018	431,95
415,221	386,9
415,424	616,27
415,627	542,54
415,83	567,12
416,033	612,17
416,235	628,56
416,438	536,4
416,641	685,9
416,844	675,66
417,047	618,32
417,25	681,8
417,453	749,39
417,655	657,23
417,858	704,33
418,061	669,52
418,264	812,87
418,467	917,32
418,669	819,02
418,872	888,65
419,075	806,73
419,278	855,88
419,48	1015,62
419,683	989
419,886	950,09
420,089	1066,82
420,291	1081,16
420,494	1019,72
420,697	993,09
420,899	1238,85
421,102	1115,97
421,305	1204,03
421,507	1183,56
421,71	1263,43
421,912	1253,19
422,115	1288
422,318	1240,9
422,52	1316,67
422,723	1480,51
422,925	1470,27
423,128	1451,84
423,33	1439,55
423,533	1347,39
423,735	1527,61
423,938	1509,18
424,14	1673,02
424,343	1732,41
424,545	1742,65
424,748	1673,02
424,95	1599,29
425,153	1865,53
425,355	1761,08
425,558	1906,49
425,76	1978,17
425,962	1937,21
426,165	1869,62
426,367	2209,59
426,57	2135,86
426,772	2021,17
426,974	2172,72
427,177	2088,76
427,379	2191,16
427,581	2314,03
427,784	2275,12
427,986	2252,59
428,188	2533,17
428,39	2510,64
428,593	2373,43
428,795	2740,01
428,997	2641,71
429,2	2680,62
429,402	2692,91
429,604	2854,7
429,806	2764,59
430,008	2836,27
430,211	2950,95
430,413	2832,17
430,615	2973,48
430,817	3139,37
431,019	3172,13
431,221	3077,93
431,423	3016,49
431,626	3172,13
431,828	3311,39
432,03	3245,86
432,232	3417,89
432,434	3528,48
432,636	3637,02
432,838	3485,47
433,04	3698,46
433,242	3698,46
433,444	3641,12
433,646	3796,76
433,848	3821,34
434,05	3895,07
434,252	3776,28
434,454	3882,78
434,656	4009,75
434,858	4194,07
435,06	4165,4
435,262	4278,04
435,464	4427,54
435,666	4419,35
435,868	4388,63
436,07	4501,26
436,271	4798,22
436,473	4679,44
436,675	4816,65
436,877	4812,56
437,079	4695,82
437,281	4988,68
437,482	4996,87
437,684	5334,79
437,886	5074,7
438,088	5193,48
438,29	5345,03
438,491	5463,81
438,693	5461,76
438,895	5601,02
439,097	6041,34
439,298	5703,42
439,5	5830,4
439,702	5895,93
439,903	5500,67
440,105	6266,61
440,307	6739,69
440,508	6516,47
440,71	6649,58
440,912	6590,19
441,113	6469,36
441,315	6756,08
441,517	6921,96
441,718	6954,73
441,92	6850,28
442,121	6960,88
442,323	7247,59
442,524	7440,1
442,726	7794,4
442,928	7556,83
443,129	7763,68
443,331	7532,26
443,532	7710,43
443,734	7796,45
443,935	8146,65
444,136	7585,51
444,338	8380,12
444,539	8316,63
444,741	8408,79
444,942	8316,63
445,144	8607,44
445,345	8806,09
445,546	8867,53
445,748	8492,76
445,949	8535,76
446,151	8720,08
446,352	9047,76
446,553	9017,04
446,755	8974,03
446,956	9479,88
447,157	9565,89
447,359	9309,9
447,56	9238,22
447,761	9326,28
447,962	9633,47
448,164	9793,22
448,365	9125,58
448,566	9768,64
448,767	9402,05
448,969	9764,54
449,17	9733,82
449,371	9144,01
449,572	9506,5
449,773	9686,72
449,974	9639,62
450,176	9578,18
450,377	9862,85
450,578	9377,48
450,779	9379,53
450,98	8955,6
451,181	9176,78
451,382	9197,26
451,583	9285,32
451,784	9158,35
451,986	9909,95
452,187	8871,63
452,388	8894,16
452,589	8431,32
452,79	9135,82
452,991	8709,84
453,192	9139,91
453,393	8738,51
453,594	9277,13
453,795	8382,17
453,995	8361,69
454,196	8287,96
454,397	8431,32
454,598	8066,78
454,799	8185,56
455	8283,86
455,201	7933,66
455,402	7859,93
455,603	7610,08
455,804	8216,28
456,004	8120,03
456,205	7407,33
456,406	7304,93
456,607	7343,85
456,808	7558,88
457,008	7331,56
457,209	6835,95
457,41	7751,39
457,611	7165,67
457,811	7458,53
458,012	7042,79
458,213	7079,66
458,414	6938,35
458,614	6803,18
458,815	6835,95
459,016	6956,78
459,216	6872,81
459,417	6864,62
459,618	6770,41
459,818	6745,84
460,019	6588,14
460,22	6538,99
460,42	6643,44
460,621	6280,95
460,821	6491,89
461,022	6575,86
461,223	6121,21
461,423	6409,97
461,624	6528,75
461,824	6618,86
462,025	6182,65
462,225	6350,58
462,426	6698,74
462,626	6504,18
462,827	6295,29
463,027	6205,17
463,228	6459,12
463,428	6256,37
463,628	6182,65
463,829	6608,62
464,029	5988,09
464,23	6502,13
464,43	6180,6
464,63	6209,27
464,831	6227,7
465,031	6418,16
465,231	6385,4
465,432	6459,12
465,632	6418,16
465,832	6041,34
466,033	6477,55
466,233	6432,5
466,433	6377,2
466,634	6399,73
466,834	6430,45
467,034	6301,43
467,234	6721,26
467,435	6620,91
467,635	6328,05
467,835	6078,2
468,035	6487,79
468,235	6319,86
468,436	6252,28
468,636	6190,84
468,836	6065,91
469,036	6598,38
469,236	6440,69
469,436	6235,89
469,636	6645,49
469,836	6301,43
470,037	6516,47
470,237	6500,08
470,437	6463,22
470,637	6106,87
470,837	6362,87
471,037	6293,24
471,237	6596,34
471,437	6522,61
471,637	6452,98
471,837	6702,83
472,037	6317,81
472,237	6405,88
472,437	6467,31
472,637	6737,65
472,837	6483,7
473,036	6350,58
473,236	6751,98
473,436	6424,31
473,636	6481,65
473,836	6424,31
474,036	6778,61
474,236	6745,84
474,436	6977,26
474,635	6670,06
474,835	6983,4
475,035	7204,58
475,235	7341,8
475,435	7173,86
475,634	7102,18
475,834	7515,87
476,034	7679,71
476,234	7401,19
476,433	7462,63
476,633	7548,64
476,833	7706,34
477,033	7544,55
477,232	8107,74
477,432	7784,16
477,632	8099,55
477,831	8189,66
478,031	8013,53
478,231	8517,33
478,43	8255,19
478,63	8646,35
478,829	8765,14
479,029	8873,68
479,229	9037,52
479,428	9246,41
479,628	9240,26
479,827	9297,61
480,027	9293,51
480,226	9481,92
480,426	9873,09
480,625	9469,64
480,825	10157,75
481,024	10088,12
481,224	10325,69
481,423	10397,37
481,623	10434,23
481,822	10491,57
482,021	10864,3
482,221	10962,61
482,42	11171,5
482,62	11153,07
482,819	11290,28
483,018	11271,85
483,218	11376,3
483,417	11615,91
483,616	11617,96
483,816	12005,02
484,015	12203,68
484,214	11990,69
484,414	12467,86
484,613	12344,98
484,812	12592,79
485,011	13016,72
485,211	12762,77
485,41	13242
485,609	12861,07
485,808	13330,06
486,008	13577,86
486,207	13260,43
486,406	13751,94
486,605	13717,12
486,804	14046,85
487,003	13964,93
487,203	14448,25
487,402	14327,42
487,601	14362,23
487,8	14573,17
487,999	14569,08
488,198	15042,16
488,397	15185,52
488,596	15234,67
488,795	15380,07
488,994	15693,41
489,193	15810,15
489,392	15996,51
489,591	16098,91
489,79	16053,86
489,989	16574,04
490,188	16430,68
490,387	16567,9
490,586	16533,08
490,785	17010,26
490,984	17112,66
491,183	17204,81
491,382	17092,18
491,581	17636,94
491,779	17931,84
491,978	17925,7
492,177	18220,61
492,376	18464,32
492,575	18394,68
492,774	18632,25
492,972	18615,87
493,171	18761,27
493,37	19207,73
493,569	19273,26
493,768	19035,7
493,966	19437,1
494,165	19424,81
494,364	19836,45
494,563	19785,26
494,761	20229,66
494,96	20471,32
495,159	20452,89
495,357	20067,88
495,556	20590,11
495,755	20567,58
495,953	21026,32
496,152	20948,5
496,35	21181,97
496,549	21437,97
496,748	21534,22
496,946	21440,01
497,145	21618,19
497,343	21544,46
497,542	21771,79
497,74	21702,15
497,939	22242,82
498,137	22160,9
498,336	22218,24
498,534	22087,17
498,733	22631,93
498,931	22539,77
499,13	22996,47
499,328	22719,99
499,527	23195,12
499,725	22943,22
499,924	22820,35
500,122	23055,86
500,32	23262,71
500,519	23262,71
500,717	23385,58
500,915	23365,1
501,114	23774,7
501,312	23735,79
501,51	23825,9
501,709	24126,95
501,907	24075,75
502,105	23782,89
502,304	24296,93
502,502	24032,74
502,7	24368,61
502,898	24335,84
503,097	24819,16
503,295	24587,74
503,493	24819,16
503,691	25222,61
503,889	24761,82
504,088	25013,72
504,286	25273,81
504,484	25394,64
504,682	25470,42
504,88	25427,41
505,078	25927,11
505,276	25599,44
505,474	25906,63
505,672	25439,7
505,871	25712,08
506,069	26217,93
506,267	25931,21
506,465	26064,33
506,663	26326,47
506,861	26017,22
507,059	26633,66
507,257	26410,43
507,455	26744,25
507,653	26414,53
507,851	26963,39
508,049	26793,4
508,246	26838,46
508,444	26836,41
508,642	27162,04
508,84	27102,65
509,038	27233,72
509,236	27467,19
509,434	27256,25
509,632	27864,49
509,829	27694,51
510,027	27555,25
510,225	27778,48
510,423	28190,12
510,621	28028,33
510,818	28126,63
511,016	28298,66
511,214	28468,64
511,412	28638,62
511,609	28401,06
511,807	28972,44
512,005	28616,1
512,203	28933,53
512,4	29396,37
512,598	29250,97
512,796	29253,01
512,993	29521,3
513,191	29539,73
513,389	29828,49
513,586	29994,38
513,784	29879,69
513,981	30096,78
514,179	30279,05
514,377	30190,98
514,574	30451,08
514,772	30551,43
514,969	30799,23
515,167	30788,99
515,364	30981,5
515,562	31325,56
515,759	31339,9
515,957	31303,03
516,154	31583,6
516,352	31620,47
516,549	31778,16
516,746	31620,47
516,944	32400,74
517,141	32357,74
517,339	32011,63
517,536	32484,71
517,733	32339,3
517,931	32873,82
518,128	32877,92
518,325	32943,45
518,523	33377,62
518,72	32623,97
518,917	33416,54
519,115	33185,11
519,312	33527,13
519,509	33662,29
519,707	33928,53
519,904	34016,59
520,101	34127,18
520,298	34336,07
520,495	34299,21
520,693	34182,48
520,89	34399,56
521,087	34250,06
521,284	34987,33
521,481	34817,35
521,678	34895,17
521,876	34729,28
522,073	35237,18
522,27	35183,93
522,467	35349,82
522,664	35376,44
522,861	35521,85
523,058	35343,67
523,255	35464,5
523,452	35538,23
523,649	35736,88
523,846	35878,19
524,043	36044,08
524,24	36218,16
524,437	36070,7
524,634	36140,33
524,831	36113,71
525,028	36121,9
525,225	36637,99
525,422	36425
525,619	36887,84
525,816	36177,2
526,013	37256,48
526,209	37152,03
526,406	36805,92
526,603	36773,16
526,8	36801,83
526,997	36883,75
527,194	37489,95
527,39	37113,12
527,587	36859,17
527,784	37485,85
527,981	37465,37
528,177	37330,2
528,374	37569,82
528,571	37426,46
528,768	38001,94
528,964	38116,62
529,161	37834
529,358	37922,07
529,554	37735,7
529,751	37784,85
529,948	37784,85
530,144	37920,02
530,341	38587,66
530,537	38479,11
530,734	38733,06
530,931	38161,68
531,127	38417,68
531,324	38857,99
531,52	38526,22
531,717	38739,21
531,913	38520,07
532,11	38718,73
532,306	38808,84
532,503	39060,74
532,699	38761,73
532,896	38860,04
533,092	39271,68
533,289	39300,35
533,485	39896,31
533,682	39435,52
533,878	39623,93
534,074	39304,45
534,271	39879,92
534,467	40223,98
534,664	39353,6
534,86	39603,45
535,056	40275,18
535,253	39740,66
535,449	40033,52
535,645	39927,03
535,841	40340,72
536,038	40037,62
536,234	40176,88
536,43	40482,03
536,626	40733,93
536,823	40305,9
537,019	40369,39
537,215	40631,53
537,411	40914,15
537,607	40459,5
537,804	40840,42
538	41120,99
538,196	41196,77
538,392	40766,7
538,588	41448,67
538,784	41225,44
538,98	40875,24
539,176	41073,89
539,373	41929,94
539,569	41180,38
539,765	41262,3
539,961	41493,72
540,157	41764,06
540,353	41043,17
540,549	42132,69
540,745	41669,85
540,941	41690,33
541,137	41796,82
541,333	41745,62
541,528	42036,44
541,724	42208,47
541,92	42194,13
542,116	42599,63
542,312	42357,97
542,508	42747,08
542,704	42818,76
542,9	42274
543,096	42695,88
543,291	42706,12
543,487	42613,96
543,683	42882,25
543,879	42917,06
544,075	42589,39
544,27	43111,62
544,466	43179,2
544,662	43386,05
544,858	43703,48
545,053	43388,1
545,249	43893,94
545,445	43396,29
545,64	44090,55
545,836	43484,35
546,032	43506,88
546,227	44008,63
546,423	43728,06
546,619	43707,58
546,814	44256,43
547,01	44051,64
547,205	44537,01
547,401	44166,32
547,597	44870,82
547,792	44418,22
547,988	45016,23
548,183	44215,47
548,379	45315,23
548,574	44858,54
548,77	45024,42
548,965	44885,16
549,161	45438,11
549,356	44692,65
549,552	45425,82
549,747	44997,8
549,942	45171,88
550,138	45575,33
550,333	44924,07
550,529	45520,03
550,724	45806,75
550,919	45407,39
551,115	45589,66
551,31	45513,89
551,505	45669,53
551,701	45526,17
551,896	45808,79
552,091	46308,5
552,287	46171,28
552,482	46242,96
552,677	46414,99
552,872	46089,37
553,067	45980,82
553,263	46351,51
553,458	46644,37
553,653	46365,84
553,848	46918,79
554,043	46300,31
554,239	47021,19
554,434	46554,25
554,629	47291,52
554,824	46992,52
555,019	46607,5
555,214	47365,25
555,409	46779,53
555,604	47471,74
555,799	47518,85
555,994	47471,74
556,189	47516,8
556,384	47803,52
556,579	47527,04
556,774	47416,45
556,969	47793,28
557,164	47488,13
557,359	47953,02
557,554	47647,87
557,749	48487,54
557,944	48020,6
558,139	47899,77
558,334	48071,8
558,529	48698,48
558,724	48295,03
558,918	48448,63
559,113	48655,47
559,308	48620,66
559,503	48647,28
559,698	48710,77
559,893	48348,28
560,087	48983,15
560,282	48659,57
560,477	48690,29
560,672	48651,37
560,866	49153,13
561,061	49069,16
561,256	49536,1
561,45	49392,74
561,645	49941,6
561,84	49683,55
562,034	49816,67
562,229	49327,2
562,424	49636,45
562,618	49689,7
562,813	49855,58
563,008	49417,32
563,202	49642,59
563,397	49779,81
563,591	50535,51
563,786	50566,23
563,98	51051,59
564,175	50668,62
564,369	50474,07
564,564	50691,15
564,758	50875,47
564,953	50889,8
565,147	50725,97
565,342	50955,34
565,536	51547,2
565,731	50873,42
565,925	51440,71
566,119	51223,62
566,314	51676,22
566,508	51018,83
566,703	51928,12
566,897	51735,62
567,091	51684,42
567,286	51735,62
567,48	52501,56
567,674	51768,38
567,868	52579,38
568,063	52126,78
568,257	52059,19
568,451	52573,24
568,646	52280,38
568,84	52304,95
569,034	52257,85
569,228	52245,56
569,422	53525,54
569,616	52577,33
569,811	52794,42
570,005	52763,7
570,199	53468,2
570,393	52962,35
570,587	53681,19
570,781	53507,11
570,975	53644,32
571,169	53304,36
571,364	53629,99
571,558	53982,24
571,752	54387,74
571,946	54219,8
572,14	54869,01
572,334	54156,31
572,528	54631,44
572,722	54058,01
572,916	54381,59
573,109	54324,25
573,303	54633,49
573,497	54291,48
573,691	55041,04
573,885	54535,19
574,079	55340,04
574,273	54684,69
574,467	55049,23
574,661	54926,35
574,854	55428,1
575,048	55313,42
575,242	55473,16
575,436	55522,31
575,63	55634,95
575,823	55182,35
576,017	55614,47
576,211	55215,11
576,405	56665,08
576,598	55714,82
576,792	56300,54
576,986	55901,18
577,18	56140,8
577,373	56255,48
577,567	56990,7
577,761	56425,46
577,954	56941,55
578,148	56564,73
578,341	57187,31
578,535	56949,74
578,729	57191,4
578,922	56843,25
579,116	57336,81
579,309	57086,96
579,503	57992,16
579,696	57238,51
579,89	58086,37
580,083	57269,23
580,277	57859,04
580,47	57689,06
580,664	58006,5
580,857	57797,6
581,051	57707,49
581,244	57394,15
581,437	58332,12
581,631	57998,3
581,824	58651,61
582,018	58121,18
582,211	58719,19
582,404	58311,64
582,598	58256,35
582,791	58891,22
582,984	58170,33
583,178	59022,29
583,371	59075,54
583,564	58948,56
583,757	59327,44
583,951	58981,33
584,144	59734,98
584,337	59331,53
584,53	59708,36
584,723	59153,36
584,917	59851,72
585,11	59540,42
585,303	60322,75
585,496	59565
585,689	60324,8
585,882	59970,5
586,075	59470,79
586,268	59651,02
586,462	59945,92
586,655	59808,71
586,848	60591,03
587,041	60249,02
587,234	60801,97
587,427	60095,42
587,62	60713,91
587,813	60531,64
588,006	60793,78
588,199	60748,73
588,392	61096,88
588,585	60943,28
588,777	61227,95
588,97	60488,63
589,163	61074,35
589,356	60842,93
589,549	61332,4
589,742	61139,89
589,935	61453,23
590,128	61217,71
590,32	61672,36
590,513	61385,64
590,706	61860,77
590,899	61248,43
591,092	61979,56
591,284	61152,18
591,477	61944,74
591,67	61365,16
591,863	61653,93
592,055	61520,81
592,248	61766,57
592,441	61717,42
592,633	61987,75
592,826	61684,65
593,019	61916,07
593,211	61522,86
593,404	61789,09
593,596	61823,91
593,789	61819,81
593,982	61629,35
594,174	61836,2
594,367	61637,54
594,559	61989,8
594,752	61975,46
594,944	61926,31
595,137	62061,47
595,329	62221,22
595,522	62356,38
595,714	62210,98
595,907	62364,57
596,099	61954,98
596,292	62135,2
596,484	62335,9
596,676	61885,35
596,869	62331,81
597,061	62063,52
597,253	62286,75
597,446	62163,87
597,638	62454,68
597,83	62129,06
598,023	62352,29
598,215	62102,43
598,407	62245,79
598,6	62272,42
598,792	62167,97
598,984	61828,01
599,176	62274,46
599,369	61725,61
599,561	62311,33
599,753	61758,37
599,945	62456,73
600,137	61760,42
600,329	62139,3
600,522	61627,3
600,714	61942,69
600,906	61529
601,098	61909,92
601,29	61690,79
601,482	61828,01
601,674	61778,85
601,866	61563,82
602,058	61336,49
602,25	61490,09
602,442	61283,25
602,634	61774,76
602,826	60959,67
603,018	61404,08
603,21	61416,36
603,402	61285,29
603,594	61074,35
603,786	61365,16
603,978	60949,43
604,17	61037,49
604,362	61262,77
604,554	60728,25
604,745	61213,62
604,937	61152,18
605,129	60742,58
605,321	60926,9
605,513	60799,93
605,704	61123,5
605,896	60351,42
606,088	60742,58
606,28	60349,37
606,471	60457,91
606,663	59945,92
606,855	60328,89
607,047	59718,6
607,238	60285,89
607,43	59415,5
607,622	60163,01
607,813	59313,1
608,005	59825,09
608,197	59395,02
608,388	59767,75
608,58	58786,77
608,771	59421,64
608,963	58608,6
609,154	58731,48
609,346	58149,85
609,537	58776,53
609,729	58426,33
609,921	58702,81
610,112	57582,57
610,303	57981,92
610,495	57308,14
610,686	57662,44
610,878	57076,72
611,069	56876,02
611,261	56916,98
611,452	56613,88
611,643	56421,37
611,835	56667,12
612,026	56060,93
612,217	56349,69
612,409	56271,87
612,6	56486,9
612,791	55258,12
612,983	55815,17
613,174	55483,4
613,365	55518,21
613,557	54955,02
613,748	55194,64
613,939	54647,83
614,13	54852,62
614,321	54731,79
614,513	55049,23
614,704	54365,21
614,895	54746,13
615,086	54418,45
615,277	54623,25
615,468	53619,75
615,659	54537,24
615,851	53627,94
616,042	54459,41
616,233	54242,33
616,424	53959,71
616,615	54037,53
616,806	53877,79
616,997	53347,37
617,188	53099,56
617,379	54090,78
617,57	53668,9
617,761	53955,61
617,952	53668,9
618,143	53462,05
618,334	53460,01
618,524	53681,19
618,715	53388,33
618,906	53466,15
619,097	53312,55
619,288	53597,22
619,479	53509,16
619,67	53091,37
619,86	54127,64
620,051	53206,06
620,242	53304,36
620,433	53306,41
620,624	54154,27
620,814	53390,37
621,005	53654,56
621,196	53355,56
621,386	53951,52
621,577	53709,86
621,768	53664,8
621,958	54098,97
622,149	54041,63
622,34	53914,65
622,53	53826,59
622,721	53326,89
622,912	54160,41
623,102	53525,54
623,293	53799,97
623,483	54131,74
623,674	53967,9
623,864	54324,25
624,055	53691,43
624,245	53820,45
624,436	53277,74
624,626	54131,74
624,817	53740,58
625,007	53537,83
625,198	54250,52
625,388	53142,57
625,579	53787,68
625,769	53455,91
625,959	53693,47
626,15	53464,1
626,34	53111,85
626,531	53517,35
626,721	53249,06
626,911	53148,71
627,101	53287,98
627,292	52618,29
627,482	52993,07
627,672	52610,1
627,863	52814,9
628,053	52440,12
628,243	52583,47
628,433	52225,08
628,623	52491,32
628,814	51827,77
629,004	52200,5
629,194	51430,47
629,384	51651,65
629,574	51209,29
629,764	51375,17
629,955	50981,96
630,145	50932,81
630,335	50760,78
630,525	50584,66
630,715	50201,69
630,905	50379,86
631,095	49806,43
631,285	50068,57
631,475	49345,64
631,665	49814,62
631,855	49316,96
632,045	49259,62
632,235	48989,29
632,425	48786,54
632,615	48393,33
632,805	48725,1
632,994	47348,87
633,184	48757,87
633,374	48067,7
633,564	47881,34
633,754	47348,87
633,944	47232,13
634,133	46834,83
634,323	47266,95
634,513	46785,68
634,703	47301,76
634,893	46023,83
635,082	46365,84
635,272	45456,54
635,462	46222,48
635,651	46226,58
635,841	45730,97
636,031	45302,95
636,221	44928,17
636,41	44858,54
636,6	44588,2
636,789	44567,73
636,979	44274,87
637,169	44057,78
637,358	44006,58
637,548	44068,02
637,737	43529,41
637,927	43562,17
638,116	43269,31
638,306	43132,1
638,495	43046,08
638,685	42120,4
638,874	42759,37
639,064	41899,22
639,253	42587,34
639,443	41909,46
639,632	41725,14
639,822	41225,44
640,011	41946,33
640,2	41106,66
640,39	40754,41
640,579	40961,25
640,768	40860,9
640,958	40840,42
641,147	40510,7
641,336	40142,06
641,526	40303,85
641,715	39615,74
641,904	39976,18
642,093	39267,58
642,283	39906,55
642,472	39111,94
642,661	39156,99
642,85	38616,33
643,039	38808,84
643,228	38442,25
643,418	38968,58
643,607	38225,17
643,796	37747,99
643,985	37500,19
644,174	37344,54
644,363	37352,73
644,552	37666,07
644,741	36830,5
644,93	37078,3
645,119	36744,48
645,308	36697,38
645,497	36513,06
645,686	36033,84
645,875	36406,57
646,064	35908,91
646,253	35325,24
646,442	36134,19
646,631	35683,64
646,82	35571
647,009	35251,52
647,198	35169,6
647,387	35087,68
647,575	34813,25
647,764	35036,48
647,953	34753,86
648,142	34178,38
648,331	34147,66
648,519	33721,68
648,708	34176,33
648,897	33355,1
649,086	34020,69
649,274	33252,7
649,463	33340,76
649,652	32982,37
649,84	33330,52
650,029	32499,05
650,218	32691,55
650,406	32327,02
650,595	32095,6
650,784	31827,31
650,972	31868,27
651,161	31233,4
651,349	31477,11
651,538	31473,01
651,726	31196,54
651,915	30496,13
652,104	30786,94
652,292	30496,13
652,481	30643,59
652,669	30420,36
652,857	30434,69
653,046	30350,73
653,234	30188,94
653,423	29912,46
653,611	30082,44
653,8	29492,63
653,988	29531,54
654,176	29044,12
654,365	28978,59
654,553	29074,84
654,741	29121,94
654,93	28364,2
655,118	28550,56
655,306	28509,6
655,494	28386,72
655,683	27745,71
655,871	27831,72
656,059	27536,82
656,247	27811,24
656,436	27407,8
656,624	27418,03
656,812	27100,6
657	27010,49
657,188	27008,44
657,376	26693,05
657,564	26611,14
657,753	26768,83
657,941	26148,29
658,129	26070,47
658,317	26172,87
658,505	26002,89
658,693	25910,73
658,881	25697,74
659,069	25124,31
659,257	25439,7
659,445	24753,63
659,633	25218,52
659,821	25136,6
660,009	24794,59
660,197	24724,96
660,384	24614,37
660,572	24399,33
660,76	24194,53
660,948	24045,03
661,136	24104,42
661,324	23444,98
661,512	24079,85
661,699	23537,13
661,887	23502,32
662,075	23199,22
662,263	23215,6
662,451	23141,88
662,638	22810,11
662,826	22590,97
663,014	23176,69
663,201	22345,22
663,389	22681,08
663,577	22222,34
663,764	22148,61
663,952	21851,66
664,14	22175,23
664,327	21526,03
664,515	21759,5
664,702	21677,58
664,89	21646,86
665,078	21384,72
665,265	21093,91
665,453	21319,18
665,64	20778,52
665,828	20639,26
666,015	20809,24
666,203	20747,8
666,39	20760,09
666,578	20436,51
666,765	20311,58
666,952	20442,65
667,14	20221,47
667,327	19508,78
667,515	19850,79
667,702	19815,97
667,889	19621,42
668,077	19326,51
668,264	19650,09
668,451	19322,41
668,638	19324,46
668,826	19043,89
669,013	19250,74
669,2	18812,47
669,388	18658,87
669,575	18474,56
669,762	18267,71
669,949	18030,15
670,136	19240,5
670,323	18024
670,511	17999,43
670,698	17780,29
670,885	17661,51
671,072	17729,09
671,259	17530,44
671,446	17630,79
671,633	16948,82
671,82	17018,45
672,007	17161,81
672,194	16936,53
672,381	16997,97
672,568	17104,46
672,755	16764,5
672,942	16485,98
673,129	16780,89
673,316	16330,33
673,503	16381,53
673,69	16158,3
673,877	16451,16
674,064	16197,21
674,251	15963,75
674,437	15666,79
674,624	15752,8
674,811	15322,73
674,998	15378,03
675,185	15406,7
675,372	15543,91
675,558	15343,21
675,745	15015,54
675,932	14968,43
676,119	15103,6
676,305	14655,09
676,492	14882,42
676,679	14470,78
676,865	14513,78
677,052	14372,47
677,239	14409,34
677,425	14247,55
677,612	14300,8
677,798	13962,88
677,985	13954,69
678,172	13870,72
678,358	13901,44
678,545	13704,84
678,731	13710,98
678,918	13424,26
679,104	13670,02
679,291	13567,62
679,477	13291,15
679,664	13334,15
679,85	13356,68
680,036	12916,37
680,223	12795,54
680,409	12793,49
680,596	12603,03
680,782	12803,73
680,968	12537,49
681,155	12400,28
681,341	12611,22
681,527	12250,78
681,714	12211,87
681,9	12152,48
682,086	12109,47
682,272	12103,32
682,459	11853,47
682,645	11982,49
682,831	11863,71
683,017	11706,02
683,204	11501,22
683,39	11726,5
683,576	11577
683,762	11392,68
683,948	11388,58
684,134	11079,34
684,32	10991,28
684,506	11210,41
684,693	11081,39
684,879	10923,69
685,065	11038,38
685,251	10604,21
685,437	10944,17
685,623	10737,33
685,809	10538,68
685,995	10618,55
686,181	10774,19
686,366	10376,89
686,552	10313,4
686,738	10043,07
686,924	10335,93
687,11	10131,13
687,296	10157,75
687,482	9971,39
687,668	9895,61
687,853	9823,94
688,039	9758,4
688,225	9627,33
688,411	9787,07
688,597	9582,28
688,782	9612,99
688,968	9389,77
689,154	9301,7
689,34	9412,29
689,525	9342,66
689,711	9313,99
689,897	9279,18
690,082	9238,22
690,268	8947,4
690,454	8814,29
690,639	8883,92
690,825	8904,4
691,01	8525,52
691,196	8724,18
691,381	8603,35
691,567	8457,94
691,753	8509,14
691,938	8369,88
692,124	8476,37
692,309	8335,06
692,494	8431,32
692,68	8173,27
692,865	8034,01
693,051	8036,06
693,236	8177,37
693,422	7997,15
693,607	8038,11
693,792	7923,42
693,978	7812,83
694,163	7761,63
694,348	7728,86
694,534	7849,69
694,719	7530,21
694,904	7450,34
695,089	7558,88
695,275	7362,28
695,46	7397,09
695,645	7401,19
695,83	7337,7
696,016	7134,95
696,201	7335,65
696,386	7188,2
696,571	7098,09
696,756	6860,52
696,941	6842,09
697,126	6878,96
697,311	6794,99
697,497	7010,03
697,682	6860,52
697,867	6760,17
698,052	6788,85
698,237	6569,71
698,422	6565,62
698,607	6661,87
698,792	6555,38
698,977	6622,96
699,162	6317,81
699,347	6520,56
699,531	6221,56
699,716	6332,15
699,901	6358,77
700,086	6338,29
700,271	6113,02
700,456	6102,78
700,641	6190,84
700,825	6012,67
701,01	5986,04
701,195	5959,42
701,38	5875,45
701,565	5781,25
701,749	5861,12
701,934	5777,15
702,119	5703,42
702,303	5596,93
702,488	5760,77
702,673	5592,83
702,857	5738,24
703,042	5570,3
703,227	5461,76
703,411	5367,56
703,596	5752,57
703,78	5519,11
703,965	5437,19
704,15	5297,92
704,334	5189,38
704,519	5256,97
704,703	5115,66
704,888	5265,16
705,072	5066,5
705,257	5007,11
705,441	5115,66
705,625	5267,2
705,81	4980,49
705,994	4955,91
706,179	4939,53
706,363	4933,39
706,547	4900,62
706,732	4976,39
706,916	4822,8
707,1	4812,56
707,285	4771,6
707,469	4724,49
707,653	4697,87
707,837	4605,71
708,022	4765,45
708,206	4628,24
708,39	4443,92
708,574	4601,62
708,759	4579,09
708,943	4450,07
709,127	4337,43
709,311	4284,18
709,495	4362
709,679	4269,84
709,863	4306,71
710,047	4181,78
710,231	4343,57
710,415	4288,28
710,6	4329,24
710,784	4009,75
710,968	4179,73
711,152	4138,77
711,336	3991,32
711,519	4056,86
711,703	3968,79
711,887	4009,75
712,071	3911,45
712,255	3888,92
712,439	3962,65
712,623	3827,48
712,807	3856,15
712,991	3811,1
713,174	3770,14
713,358	3792,67
713,542	3845,91
713,726	3682,08
713,91	3813,15
714,093	3702,56
714,277	3690,27
714,461	3579,68
714,645	3690,27
714,828	3491,62
715,012	3542,82
715,196	3409,7
715,379	3487,52
715,563	3479,33
715,747	3536,67
715,93	3395,36
716,114	3421,99
716,297	3372,83
716,481	3407,65
716,664	3209
716,848	3245,86
717,031	3108,65
717,215	3278,63
717,398	3143,46
717,582	3196,71
717,765	3188,52
717,949	3147,56
718,132	3055,4
718,316	2924,33
718,499	2975,53
718,682	3106,6
718,866	3020,58
719,049	3075,88
719,233	2912,04
719,416	2973,48
719,599	2932,52
719,782	2854,7
719,966	2840,36
720,149	2830,12
720,332	2832,17
720,515	2774,83
720,699	2789,16
720,882	2830,12
721,065	2729,77
721,248	2889,51
721,431	2660,14
721,615	2701,1
721,798	2723,63
721,981	2678,57
722,164	2643,76
722,347	2590,51
722,53	2600,75
722,713	2580,27
722,896	2545,45
723,079	2551,6
723,262	2545,45
723,445	2578,22
723,628	2426,67
723,811	2527,02
723,994	2436,91
724,177	2500,4
724,36	2449,2
724,543	2391,86
724,726	2471,73
724,909	2381,62
725,091	2367,28
725,274	2365,23
725,457	2307,89
725,64	2238,26
725,823	2346,8
726,006	2262,83
726,188	2273,07
726,371	2363,19
726,554	2129,72
726,737	2234,16
726,919	2254,64
727,102	2232,12
727,285	2217,78
727,467	2164,53
727,65	2234,16
727,833	2101,05
728,015	2185,01
728,198	2023,22
728,38	2008,89
728,563	2133,81
728,746	1939,26
728,928	2045,75
729,111	2080,57
729,293	2076,47
729,476	1965,88
729,658	1898,3
729,841	1914,68
730,023	2019,13
730,205	1957,69
730,388	1806,14
730,57	1986,36
730,753	1951,54
730,935	1951,54
731,117	1978,17
731,3	1824,57
731,482	1900,34
731,664	1867,58
731,847	1748,79
732,029	1793,85
732,211	1890,1
732,394	1795,9
732,576	1789,75
732,758	1845,05
732,94	1732,41
733,122	1775,42
733,305	1840,95
733,487	1691,45
733,669	1740,6
733,851	1836,86
734,033	1658,68
734,215	1705,79
734,397	1777,47
734,58	1718,08
734,762	1619,77
734,944	1658,68
735,126	1570,62
735,308	1683,26
735,49	1632,06
735,672	1552,19
735,854	1546,05
736,036	1646,4
736,218	1578,81
736,399	1529,66
736,581	1564,48
736,763	1468,22
736,945	1523,52
737,127	1382,21
737,309	1570,62
737,491	1521,47
737,672	1550,14
737,854	1474,37
738,036	1455,94
738,218	1554,24
738,4	1306,43
738,581	1419,07
738,763	1288
738,945	1328,96
739,127	1349,44
739,308	1367,87
739,49	1355,58
739,672	1343,3
739,853	1408,83
740,035	1431,36
740,216	1451,84
740,398	1302,34
740,58	1206,08
740,761	1222,47
740,943	1380,16
741,124	1324,87
741,306	1277,76
741,487	1296,19
741,669	1226,56
741,85	1212,23
742,032	1267,52
742,213	1259,33
742,394	1242,95
742,576	1255,23
742,757	1337,15
742,939	1177,41
743,12	1103,68
743,301	1093,44
743,483	1195,84
743,664	1036,1
743,845	1134,4
744,027	1156,93
744,208	1109,83
744,389	1124,16
744,57	1140,55
744,752	1070,92
744,933	1046,34
745,114	1009,48
745,295	1062,73
745,476	1095,49
745,657	1019,72
745,839	1052,49
746,02	1136,45
746,201	1029,96
746,382	1013,57
746,563	1126,21
746,744	1072,96
746,925	976,71
747,106	1046,34
747,287	1054,53
747,468	935,75
747,649	1044,29
747,83	1054,53
748,011	941,89
748,192	991,05
748,373	935,75
748,554	927,56
748,735	1013,57
748,915	1003,33
749,096	902,98
749,277	964,42
749,458	968,52
749,639	956,23
749,82	966,47
750	1005,38
750,181	929,61
750,362	864,07
750,543	999,24
750,723	919,37
750,904	915,27
751,085	921,42
751,265	816,97
751,446	892,74
751,627	960,33
751,807	851,78
751,988	923,46
752,169	847,69
752,349	782,15
752,53	870,22
752,71	857,93
752,891	868,17
753,071	880,46
753,252	831,3
753,432	888,65
753,613	876,36
753,793	819,02
753,974	905,03
754,154	853,83
754,334	931,66
754,515	843,59
754,695	915,27
754,876	872,26
755,056	874,31
755,236	866,12
755,417	776,01
755,597	845,64
755,777	823,11
755,957	796,49
756,138	919,37
756,318	917,32
756,498	743,24
756,678	882,5
756,859	913,22
757,039	862,02
757,219	886,6
757,399	769,87
757,579	837,45
757,759	745,29
757,939	726,86
758,119	759,63
758,3	968,52
758,48	898,89
758,66	761,67
758,84	751,43
759,02	786,25
759,2	669,52
759,38	714,57
759,56	794,44
759,74	763,72
759,919	669,52
760,099	726,86
760,279	712,52
760,459	780,11
760,639	718,67
760,819	673,61
760,999	702,28
761,178	632,65
761,358	694,09
761,538	589,64
761,718	733
761,898	704,33
762,077	696,14
762,257	644,94
762,437	743,24
762,616	661,32
762,796	728,91
762,976	675,66
763,155	569,16
763,335	704,33
763,515	632,65
763,694	773,96
763,874	575,31
764,053	702,28
764,233	622,41
764,413	595,79
764,592	610,12
764,772	687,95
764,951	565,07
765,131	499,53
765,31	517,97
765,489	565,07
765,669	573,26
765,848	616,27
766,028	552,78
766,207	548,68
766,386	554,83
766,566	495,44
766,745	599,88
766,924	407,38
767,104	560,97
767,283	505,68
767,462	515,92
767,642	522,06
767,821	466,77
768	399,18
768,179	540,49
768,358	513,87
768,538	569,16
768,717	450,38
768,896	530,25
769,075	532,3
769,254	415,57
769,433	442,19
769,612	528,21
769,791	448,33
769,97	436,05
770,149	479,05
770,328	440,14
770,507	407,38
770,686	366,42
770,865	474,96
771,044	489,29
771,223	378,7
771,402	390,99
771,581	466,77
771,76	331,6
771,939	413,52
772,118	356,18
772,297	405,33
772,475	380,75
772,654	374,61
772,833	403,28
773,012	472,91
773,191	417,61
773,369	384,85
773,548	423,76
773,727	300,88
773,906	434
774,084	386,9
774,263	397,14
774,442	292,69
774,62	376,66
774,799	276,31
774,977	360,27
775,156	407,38
775,335	339,79
775,513	333,65
775,692	286,54
775,87	386,9
776,049	282,45
776,227	257,87
776,406	415,57
776,584	354,13
776,763	329,55
776,941	331,6
777,119	245,59
777,298	239,44
777,476	339,79
777,655	190,29
777,833	255,83
778,011	364,37
778,19	347,98
778,368	268,11
778,546	278,35
778,725	286,54
778,903	218,96
779,081	292,69
779,259	272,21
779,437	165,71
779,616	284,5
779,794	309,07
779,972	304,98
780,15	241,49
780,328	227,15
780,506	241,49
780,685	296,78
780,863	184,15
781,041	276,31
781,219	282,45
781,397	264,02
781,575	255,83
781,753	227,15
781,931	233,3
782,109	272,21
782,287	235,35
782,465	204,63
782,643	223,06
782,82	223,06
782,998	190,29
783,176	294,74
783,354	178
783,532	223,06
783,71	202,58
783,888	206,67
784,065	188,24
784,243	261,97
784,421	173,91
784,599	247,63
784,776	247,63
784,954	200,53
785,132	229,2
785,31	214,87
785,487	141,14
785,665	239,44
785,842	169,81
786,02	288,59
786,198	178
786,375	208,72
786,553	173,91
786,73	178
786,908	85,84
787,085	200,53
787,263	231,25
787,44	151,38
787,618	241,49
787,795	190,29
787,973	108,37
788,15	210,77
788,328	112,47
788,505	266,07
788,682	126,8
788,86	163,67
789,037	167,76
789,215	225,11
789,392	137,04
789,569	186,19
789,746	210,77
789,924	126,8
790,101	212,82
790,278	204,63
790,455	135
790,633	186,19
790,81	145,24
790,987	153,43
791,164	135
791,341	102,23
791,518	91,99
791,695	173,91
791,873	161,62
792,05	116,56
792,227	128,85
792,404	145,24
792,581	104,28
792,758	141,14
792,935	137,04
793,112	128,85
793,289	139,09
793,466	63,32
793,643	59,22
793,82	91,99
793,996	165,71
794,173	169,81
794,35	75,6
794,527	139,09
794,704	139,09
794,881	153,43
795,057	161,62
795,234	14,17
795,411	141,14
795,588	104,28
795,765	100,18
795,941	48,98
796,118	135
796,295	118,61
796,471	135
796,648	57,17
796,825	106,32
797,001	108,37
797,178	186,19
797,354	216,91
797,531	89,94
797,708	71,51
797,884	135
798,061	10,07
798,237	61,27
798,414	87,89
798,59	77,65
798,767	120,66
798,943	85,84
799,119	180,05
799,296	77,65
799,472	85,84
799,649	65,36
799,825	89,94
800,001	-0,17
800,178	42,84
800,354	169,81
800,53	94,04
800,707	8,02
800,883	87,89
801,059	85,84
801,235	106,32
801,411	67,41
801,588	46,93
801,764	169,81
801,94	5,97
802,116	116,56
802,292	69,46
802,468	44,88
802,645	79,7
802,821	79,7
802,997	192,34
803,173	79,7
803,349	18,26
803,525	75,6
803,701	67,41
803,877	57,17
804,053	108,37
804,229	55,12
804,405	120,66
804,581	71,51
804,756	67,41
804,932	30,55
805,108	67,41
805,284	69,46
805,46	135
805,636	100,18
805,812	36,69
805,987	139,09
806,163	87,89
806,339	681,8
806,515	116,56
806,69	36,69
806,866	128,85
807,042	79,7
807,217	63,32
807,393	79,7
807,569	18,26
807,744	216,91
807,92	85,84
808,096	28,5
808,271	5,97
808,447	65,36
808,622	32,6
808,798	112,47
808,973	67,41
809,149	81,75
809,324	63,32
809,5	46,93
809,675	-2,22
809,851	10,07
810,026	69,46
810,201	116,56
810,377	46,93
810,552	51,03
810,728	126,8
810,903	61,27
811,078	65,36
811,253	44,88
811,429	-49,32
811,604	24,4
811,779	110,42
811,955	28,5
812,13	120,66
812,305	112,47
812,48	-34,99
812,655	145,24
812,83	182,1
813,006	-28,84
813,181	124,76
813,356	79,7
813,531	22,36
813,706	132,95
813,881	12,12
814,056	87,89
814,231	55,12
814,406	-8,36
814,581	-2,22
814,756	44,88
814,931	-8,36
815,106	69,46
815,281	51,03
815,456	42,84
815,631	32,6
815,805	34,64
815,98	-0,17
816,155	20,31
816,33	46,93
816,505	42,84
816,68	67,41
816,854	14,17
817,029	8,02
817,204	-37,03
817,379	-4,27
817,553	38,74
817,728	-10,41
817,903	-8,36
818,077	100,18
818,252	-34,99
818,427	114,52
818,601	184,15
818,776	24,4
818,95	-22,7
819,125	141,14
819,299	-14,51
819,474	53,08
819,648	5,97
819,823	61,27
819,997	-6,31
820,172	-41,13
820,346	22,36
820,521	-86,19
820,695	-30,89
820,87	87,89
821,044	40,79
821,218	102,23
821,393	126,8
821,567	-57,51
821,741	-43,18
821,916	-41,13
822,09	48,98
822,264	59,22
822,438	-22,7
822,613	42,84
822,787	51,03
822,961	51,03
823,135	67,41
823,309	-0,17
823,483	53,08
823,658	22,36
823,832	30,55
824,006	-61,61
824,18	10,07
824,354	42,84
824,528	48,98
824,702	55,12
824,876	-4,27
825,05	87,89
825,224	-12,46
825,398	-26,79
825,572	-92,33
825,746	71,51
825,92	69,46
826,093	22,36
826,267	96,08
826,441	32,6
826,615	108,37
826,789	59,22
826,963	116,56
827,136	26,45
827,31	85,84
827,484	5,97
827,658	28,5
827,831	18,26
828,005	-55,47
828,179	5,97
828,353	-12,46
828,526	18,26
828,7	1,88
828,873	8,02
829,047	3,93
829,221	5,97
829,394	42,84
829,568	18,26
829,741	-92,33
829,915	24,4
830,088	83,8
830,262	137,04
830,435	-4,27
830,609	67,41
830,782	69,46
830,956	67,41
831,129	59,22
831,302	18,26
831,476	-26,79
831,649	1,88
831,822	-47,27
831,996	-2,22
832,169	12,12
832,342	-100,52
832,516	44,88
832,689	-69,8
832,862	-22,7
833,035	22,36
833,209	20,31
833,382	30,55
833,555	-28,84
833,728	3,93
833,901	-61,61
834,074	20,31
834,247	24,4
834,42	-6,31
834,594	-73,9
834,767	83,8
834,94	5,97
835,113	63,32
835,286	1,88
835,459	46,93
835,632	22,36
835,805	-30,89
835,977	30,55
836,15	40,79
836,323	-24,75
836,496	18,26
836,669	-20,65
836,842	3,93
837,015	137,04
837,188	28,5
837,36	-8,36
837,533	153,43
837,706	-41,13
837,879	77,65
838,051	46,93
838,224	40,79
838,397	28,5
838,569	38,74
838,742	-30,89
838,915	-53,42
839,087	57,17
839,26	57,17
839,433	71,51
839,605	63,32
839,778	-37,03
839,95	46,93
840,123	-4,27
840,295	-16,55
840,468	-28,84
840,64	40,79
840,813	40,79
840,985	22,36
841,158	36,69
841,33	36,69
841,502	46,93
841,675	87,89
841,847	71,51
842,019	40,79
842,192	-20,65
842,364	-22,7
842,536	30,55
842,709	22,36
842,881	26,45
843,053	14,17
843,225	-2,22
843,398	26,45
843,57	18,26
843,742	14,17
843,914	30,55
844,086	-8,36
844,258	-37,03
844,43	5,97
844,602	24,4
844,775	-51,37
844,947	40,79
845,119	14,17
845,291	118,61
845,463	8,02
845,635	-63,66
845,807	67,41
845,979	69,46
846,15	51,03
846,322	18,26
846,494	-10,41
846,666	57,17
846,838	61,27
847,01	14,17
847,182	8,02
847,354	10,07
847,525	24,4
847,697	-2,22
847,869	-69,8
848,041	20,31
848,212	18,26
848,384	-59,56
848,556	53,08
848,727	61,27
848,899	-53,42
849,071	-18,6
849,242	69,46
849,414	-2,22
849,585	-20,65
849,757	30,55
849,929	61,27
850,1	-47,27
850,272	28,5
850,443	26,45
850,615	8,02
850,786	28,5
850,958	10,07
851,129	46,93
851,3	180,05
851,472	14,17
851,643	-4,27
851,815	-16,55
851,986	55,12
852,157	5,97
852,329	116,56
852,5	-39,08
852,671	63,32
852,842	-6,31
853,014	-59,56
853,185	38,74
853,356	3,93
853,527	22,36
853,698	26,45
853,87	57,17
854,041	135
854,212	38,74
854,383	-12,46
854,554	-88,23
854,725	85,84
854,896	26,45
855,067	-28,84
855,238	-6,31
855,409	22,36
855,58	8,02
855,751	53,08
855,922	40,79
856,093	173,91
856,264	-51,37
856,435	10,07
856,606	-47,27
856,777	26,45
856,948	18,26
857,118	-51,37
857,289	-73,9
857,46	110,42
857,631	30,55
857,802	10,07
857,972	-41,13
858,143	46,93
858,314	-55,47
858,484	-14,51
858,655	-2,22
858,826	5,97
858,996	-10,41
859,167	87,89
859,338	-22,7
859,508	-53,42
859,679	-49,32
859,849	-43,18
860,02	63,32
860,19	22,36
860,361	51,03
860,531	-55,47
860,702	89,94
860,872	128,85
861,043	-43,18
861,213	48,98
861,384	-2,22
861,554	-22,7
861,724	-57,51
861,895	59,22
862,065	137,04
862,235	36,69
862,406	28,5
862,576	-12,46
862,746	-10,41
862,916	12,12
863,087	14,17
863,257	51,03
863,427	-104,62
863,597	55,12
863,767	87,89
863,937	-100,52
864,108	61,27
864,278	-32,94
864,448	51,03
864,618	34,64
864,788	-4,27
864,958	-16,55
865,128	18,26
865,298	26,45
865,468	30,55
865,638	-61,61
865,808	16,21
865,978	73,56
866,148	-57,51
866,318	10,07
866,487	102,23
866,657	-6,31
866,827	-4,27
866,997	-22,7
867,167	96,08
867,337	24,4
867,506	26,45
867,676	1,88
867,846	53,08
868,016	51,03
868,185	-61,61
868,355	48,98
868,525	36,69
868,694	32,6
868,864	77,65
869,034	-20,65
869,203	5,97
869,373	-28,84
869,542	112,47
869,712	3,93
869,881	59,22
870,051	-18,6
870,22	-28,84
870,39	20,31
870,559	18,26
870,729	-61,61
870,898	42,84
871,068	24,4
871,237	5,97
871,406	-39,08
871,576	55,12
871,745	-20,65
871,914	-20,65
872,084	-2,22
872,253	22,36
872,422	5,97
872,591	38,74
872,761	-59,56
872,93	358,22
873,099	1,88
873,268	20,31
873,437	-59,56
873,607	-51,37
873,776	-102,57
873,945	-34,99
874,114	-0,17
874,283	5,97
874,452	-20,65
874,621	59,22
874,79	79,7
874,959	59,22
875,128	55,12
875,297	-6,31
875,466	85,84
875,635	51,03
875,804	12,12
875,973	-12,46
876,142	71,51
876,31	12,12
876,479	8,02
876,648	1,88
876,817	-39,08
876,986	96,08
877,155	34,64
877,323	30,55
877,492	51,03
877,661	143,19
877,829	63,32
877,998	-22,7
878,167	-22,7
878,335	-4,27
878,504	-53,42
878,673	-47,27
878,841	-75,95
879,01	-18,6
879,178	79,7
879,347	8,02
879,515	3,93
879,684	14,17
879,852	-55,47
880,021	20,31
880,189	1,88
880,358	18,26
880,526	108,37
880,695	-106,67
880,863	26,45
881,031	-30,89
881,2	53,08
881,368	-75,95
881,536	85,84
881,705	73,56
881,873	28,5
882,041	-59,56
882,21	55,12
882,378	-22,7
882,546	20,31
882,714	-0,17
882,882	22,36
883,05	55,12
883,219	-106,67
883,387	-16,55
883,555	-12,46
883,723	-26,79
883,891	-55,47
884,059	-20,65
884,227	38,74
884,395	-45,23
884,563	55,12
884,731	-8,36
884,899	-6,31
885,067	-12,46
885,235	5,97
885,403	-32,94
885,571	22,36
885,739	71,51
