Data from LED  orange_USB4F035431__0__13-01-51-523.txt Node

Date: Tue Feb 02 13:01:51 CET 2021
User: Praktikum
Spectrometer: USB4F03543
Trigger mode: 4
Integration Time (sec): 4,000000E-1
Scans to average: 1
Electric dark correction enabled: true
Nonlinearity correction enabled: false
Boxcar width: 0
XAxis mode: Wavelengths
Number of Pixels in Spectrum: 3648
>>>>>Begin Spectral Data<<<<<
179,969	-662,52
180,181	-662,52
180,394	-662,52
180,606	-654,33
180,819	-627,7
181,031	209,92
181,243	463,86
181,456	-222,2
181,668	-140,29
181,88	236,54
182,093	19,46
182,305	-293,88
182,518	-181,25
182,73	297,98
182,942	80,89
183,155	-203,77
183,367	-267,26
183,579	308,22
183,791	259,07
184,004	-209,92
184,216	-152,57
184,428	44,03
184,641	111,61
184,853	-261,12
185,065	-193,53
185,277	168,96
185,49	293,88
185,702	-199,68
185,914	-209,92
186,126	39,94
186,338	138,24
186,551	-324,6
186,763	-160,77
186,975	-113,66
187,187	101,37
187,399	-304,12
187,612	-195,58
187,824	62,46
188,036	166,91
188,248	-119,81
188,46	-263,16
188,672	197,63
188,885	91,13
189,097	-74,75
189,309	-214,01
189,521	125,95
189,733	162,81
189,945	-134,14
190,157	-80,89
190,369	60,42
190,581	-33,79
190,794	-154,62
191,006	-177,15
191,218	78,85
191,43	183,29
191,642	-193,53
191,854	-193,53
192,066	330,75
192,278	224,25
192,49	-332,79
192,702	-175,1
192,914	146,43
193,126	78,85
193,338	-140,29
193,55	-93,18
193,762	203,77
193,974	-84,99
194,186	-271,36
194,398	-197,63
194,61	211,96
194,822	187,39
195,034	-246,78
195,246	-9,22
195,457	125,95
195,669	269,31
195,881	-201,72
196,093	-343,03
196,305	99,33
196,517	-168,96
196,729	-173,05
196,941	-191,49
197,153	322,56
197,365	392,19
197,576	-293,88
197,788	-175,1
198	195,58
198,212	349,18
198,424	-203,77
198,636	-273,4
198,847	-82,94
199,059	152,57
199,271	-242,68
199,483	-222,2
199,695	168,96
199,906	173,05
200,118	-228,35
200,33	-166,91
200,542	877,55
200,753	74,75
200,965	-168,96
201,177	-187,39
201,389	130,05
201,6	-144,38
201,812	-203,77
202,024	-181,25
202,235	-1,02
202,447	250,88
202,659	-203,77
202,871	-150,53
203,082	78,85
203,294	-111,61
203,506	-152,57
203,717	-193,53
203,929	136,19
204,141	-15,36
204,352	-181,25
204,564	-168,96
204,775	54,27
204,987	279,55
205,199	-236,54
205,41	-99,33
205,622	275,45
205,833	15,36
206,045	-132,09
206,257	-168,96
206,468	-11,26
206,68	-19,46
206,891	-211,96
207,103	-226,3
207,314	-144,38
207,526	158,72
207,737	-283,64
207,949	-130,05
208,16	72,7
208,372	197,63
208,583	-185,34
208,795	-175,1
209,006	93,18
209,218	146,43
209,429	-287,74
209,641	-156,67
209,852	95,23
210,064	148,48
210,275	-242,68
210,487	-113,66
210,698	265,21
210,909	193,53
211,121	-121,85
211,332	-130,05
211,544	177,15
211,755	334,84
211,966	-37,89
212,178	-218,11
212,389	461,82
212,6	5,12
212,812	23,55
213,023	-218,11
213,234	257,02
213,446	117,76
213,657	-293,88
213,868	-166,91
214,08	371,71
214,291	214,01
214,502	-168,96
214,714	-242,68
214,925	-27,65
215,136	-1,02
215,347	-130,05
215,559	-242,68
215,77	-158,72
215,981	308,22
216,192	-281,6
216,404	-164,86
216,615	195,58
216,826	201,72
217,037	-183,29
217,249	-214,01
217,46	265,21
217,671	87,04
217,882	-195,58
218,093	-250,88
218,304	101,37
218,516	220,16
218,727	-316,41
218,938	-209,92
219,149	396,28
219,36	82,94
219,571	-312,32
219,782	-287,74
219,993	322,56
220,205	7,17
220,416	-95,23
220,627	-44,03
220,838	220,16
221,049	621,56
221,26	-207,87
221,471	-267,26
221,682	209,92
221,893	383,99
222,104	-248,83
222,315	-291,84
222,526	-115,71
222,737	37,89
222,948	-320,51
223,159	-171,01
223,37	72,7
223,581	-17,41
223,792	-222,2
224,003	-119,81
224,214	-82,94
224,425	201,72
224,636	-244,73
224,847	-44,03
225,058	130,05
225,269	158,72
225,48	-226,3
225,691	-336,89
225,902	125,95
226,112	7,17
226,323	-324,6
226,534	-140,29
226,745	23,55
226,956	-72,7
227,167	-199,68
227,378	-117,76
227,589	33,79
227,799	392,19
228,01	-242,68
228,221	-265,21
228,432	68,61
228,643	-162,81
228,853	-168,96
229,064	-230,4
229,275	158,72
229,486	-27,65
229,697	-226,3
229,907	-168,96
230,118	97,28
230,329	29,7
230,54	-261,12
230,75	-160,77
230,961	254,97
231,172	56,32
231,383	-234,49
231,593	-281,6
231,804	-23,55
232,015	146,43
232,225	-189,44
232,436	-273,4
232,647	185,34
232,857	297,98
233,068	-234,49
233,279	-132,09
233,489	70,65
233,7	-1,02
233,91	-246,78
234,121	-230,4
234,332	148,48
234,542	101,37
234,753	-209,92
234,964	-78,85
235,174	35,84
235,385	211,96
235,595	-209,92
235,806	-158,72
236,016	-103,42
236,227	-99,33
236,437	-263,16
236,648	-191,49
236,858	150,53
237,069	-7,17
237,279	-226,3
237,49	-240,64
237,7	224,25
237,911	109,57
238,121	-199,68
238,332	-254,97
238,542	175,1
238,753	54,27
238,963	-244,73
239,174	-250,88
239,384	66,56
239,595	80,89
239,805	-197,63
240,015	-214,01
240,226	54,27
240,436	101,37
240,647	-263,16
240,857	-179,2
241,067	101,37
241,278	715,77
241,488	-324,6
241,698	-119,81
241,909	-84,99
242,119	60,42
242,329	-218,11
242,54	-197,63
242,75	95,23
242,96	-74,75
243,171	-168,96
243,381	-199,68
243,591	-76,8
243,801	273,4
244,012	-74,75
244,222	-199,68
244,432	-138,24
244,642	29,7
244,853	-228,35
245,063	-181,25
245,273	97,28
245,483	87,04
245,694	-134,14
245,904	-166,91
246,114	187,39
246,324	-95,23
246,534	-193,53
246,744	-269,31
246,955	-230,4
247,165	396,28
247,375	-41,98
247,585	-173,05
247,795	74,75
248,005	189,44
248,215	-166,91
248,425	-62,46
248,636	541,69
248,846	-23,55
249,056	-285,69
249,266	-254,97
249,476	144,38
249,686	68,61
249,896	-252,92
250,106	-97,28
250,316	48,13
250,526	470,01
250,736	-269,31
250,946	-11,26
251,156	359,42
251,366	119,81
251,576	-168,96
251,786	-103,42
251,996	19,46
252,206	-50,18
252,416	-175,1
252,626	-246,78
252,836	-160,77
253,046	105,47
253,256	-117,76
253,466	-105,47
253,676	72,7
253,885	226,3
254,095	-271,36
254,305	-121,85
254,515	123,9
254,725	80,89
254,935	-263,16
255,145	-144,38
255,355	242,68
255,564	50,18
255,774	-228,35
255,984	97,28
256,194	130,05
256,404	25,6
256,614	-123,9
256,823	-72,7
257,033	80,89
257,243	209,92
257,453	-343,03
257,662	-177,15
257,872	261,12
258,082	64,51
258,292	-220,16
258,501	-113,66
258,711	689,14
258,921	412,67
259,131	-230,4
259,34	-166,91
259,55	87,04
259,76	-27,65
259,969	-193,53
260,179	-183,29
260,389	93,18
260,598	326,65
260,808	-168,96
261,018	-152,57
261,227	285,69
261,437	-37,89
261,647	-175,1
261,856	-277,5
262,066	171,01
262,275	408,57
262,485	-232,44
262,694	-89,09
262,904	82,94
263,114	183,29
263,323	-214,01
263,533	-181,25
263,742	31,74
263,952	89,09
264,161	-232,44
264,371	-207,87
264,58	-17,41
264,79	46,08
264,999	-125,95
265,209	-99,33
265,418	230,4
265,628	121,85
265,837	-238,59
266,047	-175,1
266,256	416,76
266,466	19,46
266,675	-220,16
266,884	-214,01
267,094	203,77
267,303	275,45
267,513	-224,25
267,722	48,13
267,931	183,29
268,141	-35,84
268,35	-209,92
268,559	-189,44
268,769	-50,18
268,978	-226,3
269,187	-244,73
269,397	-193,53
269,606	-119,81
269,815	-46,08
270,025	-220,16
270,234	-158,72
270,443	-164,86
270,653	74,75
270,862	-277,5
271,071	-171,01
271,28	-27,65
271,49	119,81
271,699	-226,3
271,908	-138,24
272,117	125,95
272,327	52,22
272,536	-320,51
272,745	-222,2
272,954	17,41
273,163	113,66
273,372	218,11
273,582	-160,77
273,791	132,09
274	-50,18
274,209	-66,56
274,418	9,22
274,627	242,68
274,836	-39,94
275,046	58,37
275,255	-76,8
275,464	-7,17
275,673	-58,37
275,882	37,89
276,091	-91,13
276,3	130,05
276,509	80,89
276,718	-3,07
276,927	-44,03
277,136	162,81
277,345	11,26
277,554	46,08
277,763	89,09
277,972	166,91
278,181	187,39
278,39	-87,04
278,599	-21,5
278,808	-68,61
279,017	193,53
279,226	-134,14
279,435	-62,46
279,644	80,89
279,853	230,4
280,062	324,6
280,271	-128
280,48	-23,55
280,688	29,7
280,897	-11,26
281,106	-82,94
281,315	-66,56
281,524	111,61
281,733	39,94
281,942	23,55
282,151	58,37
282,359	152,57
282,568	-162,81
282,777	5,12
282,986	39,94
283,195	168,96
283,403	31,74
283,612	-97,28
283,821	7,17
284,03	17,41
284,238	201,72
284,447	-15,36
284,656	-21,5
284,865	191,49
285,073	-17,41
285,282	-21,5
285,491	78,85
285,699	-160,77
285,908	37,89
286,117	-70,65
286,325	99,33
286,534	330,75
286,743	19,46
286,951	27,65
287,16	175,1
287,369	70,65
287,577	-64,51
287,786	-39,94
287,995	103,42
288,203	-119,81
288,412	82,94
288,62	-29,7
288,829	37,89
289,037	-5,12
289,246	-76,8
289,455	-93,18
289,663	97,28
289,872	183,29
290,08	62,46
290,289	111,61
290,497	-76,8
290,706	46,08
290,914	-277,5
291,123	-56,32
291,331	54,27
291,54	185,34
291,748	173,05
291,957	27,65
292,165	68,61
292,373	-117,76
292,582	-95,23
292,79	62,46
292,999	160,77
293,207	80,89
293,415	-62,46
293,624	-193,53
293,832	48,13
294,041	154,62
294,249	-58,37
294,457	-87,04
294,666	99,33
294,874	-136,19
295,082	5,12
295,291	-5,12
295,499	19,46
295,707	134,14
295,915	-44,03
296,124	60,42
296,332	103,42
296,54	91,13
296,749	179,2
296,957	33,79
297,165	15,36
297,373	-72,7
297,581	-50,18
297,79	-58,37
297,998	-113,66
298,206	-93,18
298,414	-50,18
298,622	72,7
298,831	189,44
299,039	-48,13
299,247	62,46
299,455	-41,98
299,663	300,03
299,871	-29,7
300,08	-7,17
300,288	52,22
300,496	-13,31
300,704	-19,46
300,912	-19,46
301,12	-74,75
301,328	52,22
301,536	-3,07
301,744	-185,34
301,952	-54,27
302,16	-39,94
302,368	-9,22
302,576	29,7
302,784	44,03
302,992	-224,25
303,2	31,74
303,408	-87,04
303,616	-56,32
303,824	175,1
304,032	283,64
304,24	216,06
304,448	-11,26
304,656	-39,94
304,864	297,98
305,072	35,84
305,28	-9,22
305,488	29,7
305,696	187,39
305,904	11,26
306,111	-158,72
306,319	-35,84
306,527	15,36
306,735	68,61
306,943	50,18
307,151	62,46
307,359	-103,42
307,566	48,13
307,774	105,47
307,982	191,49
308,19	-105,47
308,398	-91,13
308,605	-93,18
308,813	-93,18
309,021	52,22
309,229	109,57
309,436	-103,42
309,644	191,49
309,852	209,92
310,06	52,22
310,267	-78,85
310,475	27,65
310,683	148,48
310,89	5,12
311,098	95,23
311,306	-27,65
311,513	171,01
311,721	-76,8
311,929	68,61
312,136	76,8
312,344	-7,17
312,552	91,13
312,759	-117,76
312,967	166,91
313,174	185,34
313,382	46,08
313,589	111,61
313,797	189,44
314,005	119,81
314,212	9,22
314,42	-150,53
314,627	89,09
314,835	-46,08
315,042	-19,46
315,25	-265,21
315,457	-148,48
315,665	-316,41
315,872	103,42
316,08	17,41
316,287	-35,84
316,495	506,87
316,702	-60,42
316,909	-181,25
317,117	207,87
317,324	117,76
317,532	234,49
317,739	-146,43
317,946	-9,22
318,154	-97,28
318,361	-84,99
318,569	52,22
318,776	-68,61
318,983	-91,13
319,191	13,31
319,398	5,12
319,605	54,27
319,813	117,76
320,02	-230,4
320,227	177,15
320,434	230,4
320,642	99,33
320,849	-44,03
321,056	1,02
321,264	115,71
321,471	99,33
321,678	1,02
321,885	-142,33
322,092	154,62
322,3	52,22
322,507	-185,34
322,714	-54,27
322,921	-74,75
323,128	-109,57
323,336	-84,99
323,543	37,89
323,75	234,49
323,957	72,7
324,164	56,32
324,371	56,32
324,578	-197,63
324,786	156,67
324,993	-17,41
325,2	-31,74
325,407	-265,21
325,614	68,61
325,821	162,81
326,028	121,85
326,235	142,33
326,442	119,81
326,649	-140,29
326,856	23,55
327,063	-44,03
327,27	50,18
327,477	-41,98
327,684	-232,44
327,891	-62,46
328,098	95,23
328,305	56,32
328,512	-181,25
328,719	185,34
328,926	277,5
329,133	-168,96
329,34	228,35
329,546	89,09
329,753	72,7
329,96	-138,24
330,167	103,42
330,374	31,74
330,581	183,29
330,788	-84,99
330,995	13,31
331,201	19,46
331,408	91,13
331,615	-44,03
331,822	-17,41
332,029	-9,22
332,235	60,42
332,442	-91,13
332,649	5,12
332,856	-130,05
333,062	23,55
333,269	-58,37
333,476	-13,31
333,683	9,22
333,889	87,04
334,096	5,12
334,303	11,26
334,509	3,07
334,716	37,89
334,923	9,22
335,129	-91,13
335,336	89,09
335,543	138,24
335,749	-52,22
335,956	130,05
336,163	-134,14
336,369	52,22
336,576	-21,5
336,782	39,94
336,989	-82,94
337,196	46,08
337,402	-17,41
337,609	-234,49
337,815	50,18
338,022	162,81
338,228	64,51
338,435	257,02
338,641	185,34
338,848	226,3
339,054	132,09
339,261	-150,53
339,467	-107,52
339,674	113,66
339,88	-33,79
340,087	-132,09
340,293	7,17
340,5	76,8
340,706	113,66
340,912	-171,01
341,119	-52,22
341,325	-35,84
341,532	-91,13
341,738	-56,32
341,944	134,14
342,151	60,42
342,357	-115,71
342,563	80,89
342,77	52,22
342,976	-11,26
343,182	138,24
343,389	-13,31
343,595	-37,89
343,801	-25,6
344,007	93,18
344,214	-103,42
344,42	89,09
344,626	-99,33
344,832	-152,57
345,039	-60,42
345,245	144,38
345,451	-27,65
345,657	37,89
345,864	-87,04
346,07	31,74
346,276	23,55
346,482	115,71
346,688	54,27
346,894	-7,17
347,1	44,03
347,307	-74,75
347,513	29,7
347,719	11,26
347,925	144,38
348,131	-205,82
348,337	15,36
348,543	-80,89
348,749	-19,46
348,955	87,04
349,161	-158,72
349,367	66,56
349,573	283,64
349,779	1,02
349,985	-31,74
350,191	29,7
350,397	115,71
350,603	58,37
350,809	-97,28
351,015	109,57
351,221	-80,89
351,427	78,85
351,633	56,32
351,839	150,53
352,045	62,46
352,251	105,47
352,457	-60,42
352,663	103,42
352,869	-46,08
353,075	58,37
353,28	-111,61
353,486	-31,74
353,692	-9,22
353,898	-95,23
354,104	-140,29
354,31	146,43
354,515	-97,28
354,721	89,09
354,927	-15,36
355,133	140,29
355,339	-5,12
355,544	-17,41
355,75	58,37
355,956	54,27
356,162	54,27
356,367	-171,01
356,573	107,52
356,779	-60,42
356,984	142,33
357,19	218,11
357,396	-3,07
357,602	484,34
357,807	60,42
358,013	-13,31
358,218	5,12
358,424	-52,22
358,63	-93,18
358,835	-35,84
359,041	-144,38
359,247	19,46
359,452	-41,98
359,658	-111,61
359,863	52,22
360,069	121,85
360,274	101,37
360,48	89,09
360,685	3,07
360,891	297,98
361,097	-89,09
361,302	-136,19
361,508	138,24
361,713	128
361,918	293,88
362,124	-3,07
362,329	123,9
362,535	56,32
362,74	-39,94
362,946	13,31
363,151	-31,74
363,357	44,03
363,562	-39,94
363,767	-181,25
363,973	78,85
364,178	60,42
364,383	-50,18
364,589	62,46
364,794	-134,14
365	105,47
365,205	187,39
365,41	-134,14
365,615	41,98
365,821	-132,09
366,026	248,83
366,231	-15,36
366,437	207,87
366,642	-263,16
366,847	230,4
367,052	17,41
367,258	-109,57
367,463	-5,12
367,668	-37,89
367,873	181,25
368,078	97,28
368,284	-300,03
368,489	-44,03
368,694	-70,65
368,899	-82,94
369,104	113,66
369,309	62,46
369,515	-19,46
369,72	78,85
369,925	-39,94
370,13	175,1
370,335	134,14
370,54	-44,03
370,745	91,13
370,95	97,28
371,155	62,46
371,36	54,27
371,565	125,95
371,77	115,71
371,975	-136,19
372,18	97,28
372,385	246,78
372,59	119,81
372,795	13,31
373	99,33
373,205	201,72
373,41	48,13
373,615	-70,65
373,82	-228,35
374,025	95,23
374,23	-187,39
374,435	-130,05
374,64	56,32
374,845	95,23
375,05	41,98
375,254	-5,12
375,459	-76,8
375,664	-39,94
375,869	31,74
376,074	-93,18
376,279	-89,09
376,483	44,03
376,688	-103,42
376,893	-31,74
377,098	-136,19
377,303	76,8
377,507	125,95
377,712	-27,65
377,917	87,04
378,122	203,77
378,326	27,65
378,531	-72,7
378,736	-37,89
378,94	-52,22
379,145	66,56
379,35	64,51
379,554	-78,85
379,759	-66,56
379,964	115,71
380,168	-128
380,373	-82,94
380,578	187,39
380,782	443,39
380,987	64,51
381,191	-125,95
381,396	164,86
381,601	101,37
381,805	68,61
382,01	136,19
382,214	164,86
382,419	5,12
382,623	-9,22
382,828	31,74
383,032	-58,37
383,237	-166,91
383,441	-93,18
383,646	183,29
383,85	-101,37
384,055	19,46
384,259	-41,98
384,464	-216,06
384,668	25,6
384,872	-23,55
385,077	-82,94
385,281	-41,98
385,486	-78,85
385,69	95,23
385,894	78,85
386,099	80,89
386,303	13,31
386,507	199,68
386,712	123,9
386,916	-91,13
387,12	-148,48
387,325	246,78
387,529	52,22
387,733	23,55
387,937	-41,98
388,142	7,17
388,346	-185,34
388,55	-46,08
388,754	17,41
388,959	-56,32
389,163	-1,02
389,367	-13,31
389,571	-115,71
389,775	185,34
389,98	39,94
390,184	-54,27
390,388	56,32
390,592	93,18
390,796	-70,65
391	-48,13
391,204	-9,22
391,409	-115,71
391,613	-13,31
391,817	-68,61
392,021	177,15
392,225	89,09
392,429	-7,17
392,633	-66,56
392,837	54,27
393,041	70,65
393,245	109,57
393,449	-115,71
393,653	95,23
393,857	144,38
394,061	101,37
394,265	-33,79
394,469	-5,12
394,673	111,61
394,877	48,13
395,081	27,65
395,285	224,25
395,489	105,47
395,693	48,13
395,896	27,65
396,1	109,57
396,304	185,34
396,508	-119,81
396,712	-25,6
396,916	11,26
397,12	121,85
397,323	-13,31
397,527	-56,32
397,731	242,68
397,935	166,91
398,139	-21,5
398,342	60,42
398,546	146,43
398,75	-52,22
398,954	15,36
399,157	138,24
399,361	295,93
399,565	-17,41
399,769	142,33
399,972	9,22
400,176	39,94
400,38	15,36
400,583	7,17
400,787	109,57
400,991	195,58
401,194	224,25
401,398	48,13
401,601	31,74
401,805	146,43
402,009	119,81
402,212	66,56
402,416	279,55
402,619	3,07
402,823	359,42
403,026	-62,46
403,23	48,13
403,433	281,6
403,637	44,03
403,841	62,46
404,044	128
404,247	35,84
404,451	62,46
404,654	119,81
404,858	50,18
405,061	95,23
405,265	91,13
405,468	78,85
405,672	-50,18
405,875	175,1
406,078	31,74
406,282	-95,23
406,485	-23,55
406,689	201,72
406,892	377,85
407,095	15,36
407,299	1,02
407,502	201,72
407,705	-9,22
407,909	70,65
408,112	62,46
408,315	238,59
408,518	377,85
408,722	76,8
408,925	144,38
409,128	322,56
409,331	113,66
409,535	177,15
409,738	74,75
409,941	506,87
410,144	103,42
410,347	234,49
410,551	181,25
410,754	103,42
410,957	220,16
411,16	11,26
411,363	136,19
411,566	173,05
411,769	220,16
411,973	111,61
412,176	293,88
412,379	455,67
412,582	400,38
412,785	203,77
412,988	-113,66
413,191	244,73
413,394	244,73
413,597	37,89
413,8	-66,56
414,003	482,3
414,206	125,95
414,409	140,29
414,612	-11,26
414,815	179,2
415,018	123,9
415,221	132,09
415,424	312,32
415,627	248,83
415,83	261,12
416,033	195,58
416,235	109,57
416,438	324,6
416,641	361,47
416,844	78,85
417,047	-113,66
417,25	23,55
417,453	160,77
417,655	113,66
417,858	80,89
418,061	39,94
418,264	113,66
418,467	48,13
418,669	74,75
418,872	283,64
419,075	78,85
419,278	78,85
419,48	205,82
419,683	175,1
419,886	31,74
420,089	93,18
420,291	191,49
420,494	74,75
420,697	72,7
420,899	224,25
421,102	-46,08
421,305	228,35
421,507	138,24
421,71	84,99
421,912	39,94
422,115	76,8
422,318	279,55
422,52	142,33
422,723	46,08
422,925	300,03
423,128	496,63
423,33	17,41
423,533	-37,89
423,735	199,68
423,938	150,53
424,14	97,28
424,343	300,03
424,545	447,48
424,748	336,89
424,95	195,58
425,153	25,6
425,355	150,53
425,558	340,99
425,76	158,72
425,962	242,68
426,165	171,01
426,367	35,84
426,57	80,89
426,772	70,65
426,974	259,07
427,177	54,27
427,379	23,55
427,581	181,25
427,784	58,37
427,986	132,09
428,188	130,05
428,39	-54,27
428,593	154,62
428,795	287,74
428,997	183,29
429,2	35,84
429,402	318,46
429,604	19,46
429,806	-7,17
430,008	414,71
430,211	271,36
430,413	99,33
430,615	185,34
430,817	105,47
431,019	64,51
431,221	300,03
431,423	-46,08
431,626	95,23
431,828	117,76
432,03	70,65
432,232	66,56
432,434	158,72
432,636	250,88
432,838	44,03
433,04	252,92
433,242	82,94
433,444	152,57
433,646	398,33
433,848	1,02
434,05	171,01
434,252	74,75
434,454	164,86
434,656	-64,51
434,858	140,29
435,06	87,04
435,262	359,42
435,464	132,09
435,666	267,26
435,868	482,3
436,07	285,69
436,271	50,18
436,473	119,81
436,675	484,34
436,877	193,53
437,079	250,88
437,281	39,94
437,482	205,82
437,684	-27,65
437,886	84,99
438,088	154,62
438,29	209,92
438,491	326,65
438,693	13,31
438,895	80,89
439,097	422,91
439,298	234,49
439,5	31,74
439,702	-13,31
439,903	179,2
440,105	193,53
440,307	293,88
440,508	164,86
440,71	160,77
440,912	449,53
441,113	29,7
441,315	171,01
441,517	232,44
441,718	289,79
441,92	39,94
442,121	281,6
442,323	125,95
442,524	64,51
442,726	254,97
442,928	35,84
443,129	128
443,331	254,97
443,532	128
443,734	27,65
443,935	240,64
444,136	138,24
444,338	207,87
444,539	181,25
444,741	359,42
444,942	261,12
445,144	211,96
445,345	343,03
445,546	37,89
445,748	220,16
445,949	115,71
446,151	37,89
446,352	52,22
446,553	596,98
446,755	56,32
446,956	132,09
447,157	168,96
447,359	193,53
447,56	140,29
447,761	-7,17
447,962	289,79
448,164	396,28
448,365	162,81
448,566	181,25
448,767	48,13
448,969	486,39
449,17	205,82
449,371	70,65
449,572	463,86
449,773	205,82
449,974	177,15
450,176	181,25
450,377	220,16
450,578	396,28
450,779	62,46
450,98	37,89
451,181	277,5
451,382	332,79
451,583	218,11
451,784	175,1
451,986	119,81
452,187	349,18
452,388	72,7
452,589	275,45
452,79	283,64
452,991	203,77
453,192	269,31
453,393	218,11
453,594	291,84
453,795	-1,02
453,995	115,71
454,196	130,05
454,397	171,01
454,598	175,1
454,799	15,36
455	152,57
455,201	31,74
455,402	476,15
455,603	121,85
455,804	193,53
456,004	52,22
456,205	144,38
456,406	152,57
456,607	138,24
456,808	482,3
457,008	103,42
457,209	130,05
457,41	109,57
457,611	312,32
457,811	687,09
458,012	183,29
458,213	107,52
458,414	381,95
458,614	332,79
458,815	109,57
459,016	283,64
459,216	302,08
459,417	168,96
459,618	117,76
459,818	70,65
460,019	13,31
460,22	166,91
460,42	236,54
460,621	203,77
460,821	240,64
461,022	490,49
461,223	105,47
461,423	80,89
461,624	271,36
461,824	76,8
462,025	160,77
462,225	-35,84
462,426	383,99
462,626	91,13
462,827	132,09
463,027	271,36
463,228	293,88
463,428	357,37
463,628	244,73
463,829	353,27
464,029	82,94
464,23	109,57
464,43	201,72
464,63	-19,46
464,831	48,13
465,031	330,75
465,231	80,89
465,432	269,31
465,632	666,61
465,832	123,9
466,033	72,7
466,233	95,23
466,433	590,84
466,634	310,27
466,834	248,83
467,034	89,09
467,234	392,19
467,435	414,71
467,635	132,09
467,835	134,14
468,035	314,36
468,235	234,49
468,436	261,12
468,636	191,49
468,836	11,26
469,036	367,61
469,236	224,25
469,436	230,4
469,636	502,78
469,836	154,62
470,037	205,82
470,237	199,68
470,437	429,05
470,637	318,46
470,837	187,39
471,037	306,17
471,237	216,06
471,437	293,88
471,637	209,92
471,837	179,2
472,037	218,11
472,237	281,6
472,437	60,42
472,637	416,76
472,837	394,23
473,036	291,84
473,236	300,03
473,436	291,84
473,636	318,46
473,836	142,33
474,036	320,51
474,236	93,18
474,436	203,77
474,635	359,42
474,835	316,41
475,035	281,6
475,235	244,73
475,435	418,81
475,634	230,4
475,834	250,88
476,034	476,15
476,234	189,44
476,433	269,31
476,633	517,11
476,833	365,56
477,033	248,83
477,232	136,19
477,432	318,46
477,632	617,46
477,831	451,58
478,031	287,74
478,231	334,84
478,43	367,61
478,63	252,92
478,829	52,22
479,029	269,31
479,229	269,31
479,428	70,65
479,628	234,49
479,827	328,7
480,027	103,42
480,226	758,77
480,426	289,79
480,625	275,45
480,825	377,85
481,024	431,1
481,224	553,98
481,423	252,92
481,623	717,81
481,822	195,58
482,021	408,57
482,221	322,56
482,42	670,71
482,62	418,81
482,819	289,79
483,018	343,03
483,218	214,01
483,417	474,1
483,616	293,88
483,816	510,97
484,015	646,13
484,214	412,67
484,414	502,78
484,613	400,38
484,812	431,1
485,011	287,74
485,211	367,61
485,41	521,21
485,609	293,88
485,808	439,29
486,008	390,14
486,207	326,65
486,406	367,61
486,605	422,91
486,804	238,59
487,003	312,32
487,203	486,39
487,402	257,02
487,601	201,72
487,8	414,71
487,999	340,99
488,198	551,93
488,397	365,56
488,596	322,56
488,795	330,75
488,994	562,17
489,193	306,17
489,392	400,38
489,591	293,88
489,79	363,51
489,989	371,71
490,188	351,23
490,387	613,37
490,586	488,44
490,785	371,71
490,984	379,9
491,183	504,82
491,382	484,34
491,581	427
491,779	400,38
491,978	396,28
492,177	572,41
492,376	422,91
492,575	291,84
492,774	414,71
492,972	252,92
493,171	343,03
493,37	242,68
493,569	764,92
493,768	662,52
493,966	443,39
494,165	402,43
494,364	723,96
494,563	644,09
494,761	371,71
494,96	361,47
495,159	551,93
495,357	275,45
495,556	525,3
495,755	492,54
495,953	529,4
496,152	367,61
496,35	332,79
496,549	386,04
496,748	699,38
496,946	594,93
497,145	453,63
497,343	383,99
497,542	308,22
497,74	572,41
497,939	459,77
498,137	351,23
498,336	572,41
498,534	543,74
498,733	367,61
498,931	314,36
499,13	230,4
499,328	355,32
499,527	515,06
499,725	252,92
499,924	340,99
500,122	173,05
500,32	490,49
500,519	429,05
500,717	498,68
500,915	424,95
501,114	304,12
501,312	416,76
501,51	383,99
501,709	527,35
501,907	603,13
502,105	121,85
502,304	406,52
502,502	508,92
502,7	318,46
502,898	291,84
503,097	463,86
503,295	377,85
503,493	326,65
503,691	383,99
503,889	252,92
504,088	322,56
504,286	412,67
504,484	449,53
504,682	453,63
504,88	523,26
505,078	463,86
505,276	330,75
505,474	674,81
505,672	340,99
505,871	476,15
506,069	394,23
506,267	338,94
506,465	662,52
506,663	203,77
506,861	314,36
507,059	574,46
507,257	510,97
507,455	318,46
507,653	287,74
507,851	463,86
508,049	295,93
508,246	388,09
508,444	414,71
508,642	508,92
508,84	556,02
509,038	367,61
509,236	506,87
509,434	328,7
509,632	629,75
509,829	498,68
510,027	224,25
510,225	570,36
510,423	347,13
510,621	347,13
510,818	480,25
511,016	461,82
511,214	570,36
511,412	474,1
511,609	242,68
511,807	539,64
512,005	465,91
512,203	478,2
512,4	310,27
512,598	465,91
512,796	451,58
512,993	404,47
513,191	281,6
513,389	472,06
513,586	558,07
513,784	349,18
513,981	431,1
514,179	529,4
514,377	377,85
514,574	494,58
514,772	381,95
514,969	646,13
515,167	347,13
515,364	560,12
515,562	197,63
515,759	754,68
515,957	328,7
516,154	316,41
516,352	408,57
516,549	572,41
516,746	424,95
516,944	441,34
517,141	277,5
517,339	338,94
517,536	531,45
517,733	257,02
517,931	171,01
518,128	351,23
518,325	394,23
518,523	381,95
518,72	402,43
518,917	668,66
519,115	467,96
519,312	304,12
519,509	463,86
519,707	437,24
519,904	390,14
520,101	533,5
520,298	461,82
520,495	658,42
520,693	297,98
520,89	467,96
521,087	324,6
521,284	805,88
521,481	420,86
521,678	470,01
521,876	431,1
522,073	596,98
522,27	445,43
522,467	418,81
522,664	322,56
522,861	576,5
523,058	705,53
523,255	318,46
523,452	441,34
523,649	416,76
523,846	445,43
524,043	437,24
524,24	361,47
524,437	543,74
524,634	547,83
524,831	371,71
525,028	392,19
525,225	392,19
525,422	580,6
525,619	375,8
525,816	324,6
526,013	941,04
526,209	668,66
526,406	334,84
526,603	398,33
526,8	359,42
526,997	449,53
527,194	336,89
527,39	482,3
527,587	386,04
527,784	470,01
527,981	365,56
528,177	338,94
528,374	470,01
528,571	703,48
528,768	326,65
528,964	338,94
529,161	310,27
529,358	744,44
529,554	310,27
529,751	328,7
529,948	162,81
530,144	478,2
530,341	211,96
530,537	429,05
530,734	435,19
530,931	588,79
531,127	533,5
531,324	263,16
531,52	424,95
531,717	431,1
531,913	420,86
532,11	261,12
532,306	480,25
532,503	275,45
532,699	371,71
532,896	562,17
533,092	576,5
533,289	285,69
533,485	838,64
533,682	453,63
533,878	582,65
534,074	486,39
534,271	513,02
534,467	463,86
534,664	537,59
534,86	506,87
535,056	449,53
535,253	383,99
535,449	588,79
535,645	390,14
535,841	343,03
536,038	478,2
536,234	414,71
536,43	627,7
536,626	437,24
536,823	480,25
537,019	478,2
537,215	490,49
537,411	427
537,607	457,72
537,804	531,45
538	383,99
538,196	439,29
538,392	293,88
538,588	744,44
538,784	418,81
538,98	164,86
539,176	289,79
539,373	537,59
539,569	556,02
539,765	211,96
539,961	431,1
540,157	685,05
540,353	402,43
540,549	394,23
540,745	424,95
540,941	494,58
541,137	537,59
541,333	398,33
541,528	289,79
541,724	527,35
541,92	553,98
542,116	416,76
542,312	437,24
542,508	445,43
542,704	424,95
542,9	429,05
543,096	371,71
543,291	695,29
543,487	549,88
543,683	482,3
543,879	377,85
544,075	662,52
544,27	363,51
544,466	324,6
544,662	564,22
544,858	613,37
545,053	721,91
545,249	513,02
545,445	463,86
545,64	457,72
545,836	441,34
546,032	433,15
546,227	216,06
546,423	678,9
546,619	484,34
546,814	340,99
547,01	326,65
547,205	398,33
547,401	560,12
547,597	447,48
547,792	297,98
547,988	752,63
548,183	492,54
548,379	529,4
548,574	568,31
548,77	539,64
548,965	547,83
549,161	326,65
549,356	355,32
549,552	562,17
549,747	678,9
549,942	551,93
550,138	418,81
550,333	500,73
550,529	609,27
550,724	226,3
550,919	517,11
551,115	533,5
551,31	816,12
551,505	486,39
551,701	340,99
551,896	635,89
552,091	777,2
552,287	611,32
552,482	457,72
552,677	592,89
552,872	420,86
553,067	486,39
553,263	603,13
553,458	433,15
553,653	793,59
553,848	476,15
554,043	474,1
554,239	644,09
554,434	674,81
554,629	351,23
554,824	416,76
555,019	506,87
555,214	496,63
555,409	545,78
555,604	621,56
555,799	670,71
555,994	599,03
556,189	515,06
556,384	437,24
556,579	699,38
556,774	672,76
556,969	539,64
557,164	433,15
557,359	672,76
557,554	697,33
557,749	492,54
557,944	508,92
558,139	658,42
558,334	623,61
558,529	560,12
558,724	422,91
558,918	775,16
559,113	680,95
559,308	527,35
559,503	506,87
559,698	449,53
559,893	650,23
560,087	580,6
560,282	363,51
560,477	990,19
560,672	637,94
560,866	533,5
561,061	580,6
561,256	766,96
561,45	748,53
561,645	617,46
561,84	646,13
562,034	859,12
562,229	662,52
562,424	617,46
562,618	605,17
562,813	648,18
563,008	570,36
563,202	789,49
563,397	599,03
563,591	793,59
563,786	791,54
563,98	627,7
564,175	646,13
564,369	807,92
564,564	1121,26
564,758	756,72
564,953	594,93
565,147	752,63
565,342	828,4
565,536	726
565,731	672,76
565,925	955,38
566,119	809,97
566,314	723,96
566,508	623,61
566,703	1002,48
566,897	695,29
567,091	799,73
567,286	873,46
567,48	1301,48
567,674	1278,96
567,868	797,68
568,063	760,82
568,257	1047,54
568,451	1018,86
568,646	801,78
568,84	973,81
569,034	842,74
569,228	934,9
569,422	1004,53
569,616	908,27
569,811	988,14
570,005	1168,37
570,199	930,8
570,393	992,24
570,587	1313,77
570,781	1035,25
570,975	969,71
571,169	1086,45
571,364	1584,1
571,558	1416,17
571,752	1231,85
571,946	1266,67
572,14	1502,19
572,334	1344,49
572,528	1205,23
572,722	1283,05
572,916	1362,92
573,109	1534,95
573,303	1360,88
573,497	1242,09
573,691	1729,51
573,885	1561,58
574,079	1539,05
574,273	1338,35
574,467	1641,45
574,661	1604,58
574,854	1430,51
575,048	1520,62
575,242	1772,52
575,436	1778,66
575,63	1543,14
575,823	1704,93
576,017	1801,19
576,211	1793
576,405	1739,75
576,598	1754,09
576,792	1987,55
576,986	2108,38
577,18	1901,54
577,373	1862,63
577,567	2161,63
577,761	2100,19
577,954	2032,61
578,148	2122,72
578,341	2311,13
578,535	2567,13
578,729	2249,69
578,922	2259,93
579,116	2368,48
579,309	2403,29
579,503	2468,83
579,696	2446,3
579,89	2986,96
580,083	2780,12
580,277	2603,99
580,47	2528,22
580,664	3105,74
580,857	2851,8
581,051	2755,54
581,244	2937,81
581,437	3075,03
581,631	3271,63
581,824	3091,41
582,018	3113,94
582,211	3193,81
582,404	3359,69
582,598	3357,64
582,791	3365,84
582,984	3597,26
583,178	3886,02
583,371	3501
583,564	3654,6
583,757	4012,99
583,951	4234,18
584,144	3935,17
584,337	3892,16
584,53	4275,13
584,723	4070,34
584,917	4336,57
585,11	4117,44
585,303	4797,37
585,496	4819,89
585,689	4674,49
585,882	4572,09
586,075	4926,39
586,268	4780,98
586,462	4918,2
586,655	4950,96
586,848	5444,52
587,041	5319,6
587,234	5356,46
587,427	5475,24
587,62	5665,71
587,813	5628,84
588,006	5987,24
588,199	5788,58
588,392	6263,71
588,585	6189,99
588,777	6261,66
588,97	6261,66
589,163	7201,68
589,356	7099,28
589,549	6837,14
589,742	6931,35
589,935	7142,29
590,128	7101,33
590,32	7418,77
590,513	7523,21
590,706	7777,16
590,899	7850,89
591,092	7977,86
591,284	8151,94
591,477	8565,63
591,67	8760,19
591,863	8670,08
592,055	8663,93
592,248	9653,1
592,441	9393,01
592,633	9749,36
592,826	9634,67
593,019	9876,33
593,211	10460
593,404	10218,34
593,596	10435,42
593,789	10994,52
593,982	11240,28
594,174	11207,51
594,367	11438,93
594,559	12122,95
594,752	11922,25
594,944	12129,09
595,137	12522,3
595,329	13347,64
595,522	13552,43
595,714	13538,1
595,907	13998,89
596,099	14209,83
596,292	14609,19
596,484	14840,61
596,676	15119,13
596,869	16014,09
597,061	16579,33
597,253	15964,94
597,446	16601,86
597,638	17285,88
597,83	17695,47
598,023	17709,81
598,215	18201,32
598,407	18774,75
598,6	19030,75
598,792	19667,67
598,984	19962,58
599,176	20589,25
599,369	21414,59
599,561	22039,22
599,753	21572,28
599,945	22997,67
600,137	22796,96
600,329	23601,82
600,522	23870,1
600,714	24797,83
600,906	25076,35
601,098	25770,61
601,29	26350,19
601,482	26874,47
601,674	27650,65
601,866	28322,38
602,058	28566,09
602,25	29585,98
602,442	30110,26
602,634	30786,09
602,826	31128,1
603,018	32381,46
603,21	33051,14
603,402	33239,56
603,594	33513,98
603,786	35375,59
603,978	35291,62
604,17	35840,48
604,362	36395,48
604,554	37439,94
604,745	38011,32
604,937	38863,28
605,129	39305,64
605,321	40075,68
605,513	41023,89
605,704	41877,89
605,896	42391,93
606,088	43340,14
606,28	43227,5
606,471	44278,11
606,663	44714,33
606,855	45597
607,047	46778,68
607,238	47501,61
607,43	46969,14
607,622	49137,94
607,813	49449,23
608,005	49787,14
608,197	51044,6
608,388	52150,5
608,58	51871,98
608,771	53141,72
608,963	53272,79
609,154	54167,75
609,346	54239,43
609,537	55537,84
609,729	55634,1
609,921	56748,19
610,112	56733,85
610,303	57542,8
610,495	57503,89
610,686	59068,54
610,878	58482,82
611,069	58949,76
611,261	58988,67
611,452	59281,53
611,643	58957,95
611,835	59633,78
612,026	59166,84
612,217	59639,92
612,409	59058,3
612,6	58826,88
612,791	57798,8
612,983	58312,84
613,174	57718,93
613,365	57274,52
613,557	55652,53
613,748	55939,24
613,939	54309,06
614,13	53668,05
614,321	51826,92
614,513	52357,35
614,704	49871,11
614,895	48763,16
615,086	47644,97
615,277	46672,18
615,468	44728,66
615,659	44056,93
615,851	41955,71
616,042	41056,65
616,233	39629,22
616,424	38588,85
616,615	36747,73
616,806	35234,28
616,997	33337,86
617,188	32397,84
617,379	30980,65
617,57	30188,08
617,761	28373,58
617,952	27212,38
618,143	26174,06
618,334	25160,32
618,524	24212,11
618,715	23132,83
618,906	22182,57
619,097	21271,23
619,288	20460,23
619,479	19669,72
619,67	18320,1
619,86	17750,77
620,051	17230,59
620,242	16669,44
620,433	15747,86
620,624	15274,77
620,814	14828,32
621,005	13845,29
621,196	13386,55
621,386	13226,81
621,577	12612,42
621,768	12198,73
621,958	11262,8
622,149	11098,97
622,34	10859,35
622,53	10244,96
622,721	10197,86
622,912	10064,74
623,102	9624,43
623,293	9180,02
623,483	8788,86
623,674	8917,88
623,864	8274,82
624,055	8084,36
624,245	7672,71
624,436	7523,21
624,626	7445,39
624,817	7203,73
625,007	6804,38
625,198	6845,34
625,388	6636,44
625,579	6409,12
625,769	6212,51
625,959	6480,8
626,15	6067,11
626,34	5665,71
626,531	5598,12
626,721	5606,31
626,911	5213,1
627,101	5000,12
627,292	4797,37
627,482	4965,3
627,672	4926,39
627,863	4377,53
628,053	4512,7
628,243	4510,65
628,433	3916,74
628,623	4002,75
628,814	3677,13
629,004	4010,95
629,194	3627,98
629,384	3613,64
629,574	3390,41
629,764	3652,55
629,955	3468,24
630,145	3091,41
630,335	2964,43
630,525	2923,48
630,715	3142,61
630,905	2925,52
631,095	2417,63
631,285	2659,29
631,475	2397,15
631,665	2702,29
631,855	2294,75
632,045	2184,16
632,235	2112,48
632,425	2036,7
632,615	1936,35
632,805	2225,12
632,994	2003,94
633,184	2005,99
633,374	1831,91
633,564	1807,33
633,754	1864,68
633,944	1776,61
634,133	1461,23
634,323	1813,48
634,513	1760,23
634,703	1586,15
634,893	1428,46
635,082	1672,17
635,272	1516,52
635,462	1221,61
635,651	1338,35
635,841	1530,86
636,031	1242,09
636,221	1119,21
636,41	1147,89
636,6	1186,8
636,789	1250,28
636,979	953,33
637,169	994,29
637,358	865,27
637,548	1221,61
637,737	928,75
637,927	869,36
638,116	973,81
638,306	953,33
638,495	883,7
638,685	859,12
638,874	928,75
639,064	926,71
639,253	861,17
639,443	775,16
639,632	842,74
639,822	775,16
640,011	818,16
640,2	691,19
640,39	982
640,579	834,55
640,768	570,36
640,958	611,32
641,147	623,61
641,336	601,08
641,526	523,26
641,715	617,46
641,904	898,03
642,093	482,3
642,283	588,79
642,472	517,11
642,661	488,44
642,85	824,31
643,039	377,85
643,228	529,4
643,418	627,7
643,607	715,77
643,796	609,27
643,985	254,97
644,174	590,84
644,363	676,85
644,552	453,63
644,741	199,68
644,93	283,64
645,119	607,22
645,308	293,88
645,497	383,99
645,686	668,66
645,875	373,75
646,064	220,16
646,253	449,53
646,442	689,14
646,631	300,03
646,82	316,41
647,009	267,26
647,198	422,91
647,387	371,71
647,575	248,83
647,764	529,4
647,953	535,54
648,142	451,58
648,331	148,48
648,519	285,69
648,708	500,73
648,897	365,56
649,086	338,94
649,274	191,49
649,463	207,87
649,652	736,24
649,84	283,64
650,029	273,4
650,218	312,32
650,406	478,2
650,595	175,1
650,784	316,41
650,972	461,82
651,161	388,09
651,349	271,36
651,538	304,12
651,726	410,62
651,915	435,19
652,104	246,78
652,292	72,7
652,481	433,15
652,669	670,71
652,857	119,81
653,046	185,34
653,234	287,74
653,423	422,91
653,611	154,62
653,8	220,16
653,988	330,75
654,176	197,63
654,365	95,23
654,553	203,77
654,741	478,2
654,93	168,96
655,118	175,1
655,306	140,29
655,494	64,51
655,683	203,77
655,871	80,89
656,059	289,79
656,247	115,71
656,436	199,68
656,624	193,53
656,812	181,25
657	259,07
657,188	529,4
657,376	193,53
657,564	310,27
657,753	160,77
657,941	201,72
658,129	177,15
658,317	154,62
658,505	125,95
658,693	291,84
658,881	48,13
659,069	214,01
659,257	181,25
659,445	334,84
659,633	304,12
659,821	158,72
660,009	320,51
660,197	134,14
660,384	66,56
660,572	130,05
660,76	248,83
660,948	402,43
661,136	15,36
661,324	64,51
661,512	500,73
661,699	46,08
661,887	269,31
662,075	242,68
662,263	275,45
662,451	193,53
662,638	216,06
662,826	60,42
663,014	453,63
663,201	467,96
663,389	78,85
663,577	261,12
663,764	338,94
663,952	117,76
664,14	175,1
664,327	87,04
664,515	449,53
664,702	267,26
664,89	93,18
665,078	72,7
665,265	136,19
665,453	205,82
665,64	39,94
665,828	64,51
666,015	263,16
666,203	281,6
666,39	179,2
666,578	146,43
666,765	48,13
666,952	537,59
667,14	287,74
667,327	56,32
667,515	203,77
667,702	207,87
667,889	23,55
668,077	-5,12
668,264	486,39
668,451	330,75
668,638	121,85
668,826	9,22
669,013	240,64
669,2	328,7
669,388	101,37
669,575	265,21
669,762	33,79
669,949	414,71
670,136	4813,75
670,323	134,14
670,511	230,4
670,698	185,34
670,885	97,28
671,072	244,73
671,259	158,72
671,446	248,83
671,633	80,89
671,82	21,5
672,007	5,12
672,194	257,02
672,381	160,77
672,568	130,05
672,755	248,83
672,942	261,12
673,129	78,85
673,316	72,7
673,503	359,42
673,69	207,87
673,877	158,72
674,064	154,62
674,251	252,92
674,437	293,88
674,624	144,38
674,811	130,05
674,998	76,8
675,185	181,25
675,372	226,3
675,558	130,05
675,745	297,98
675,932	328,7
676,119	-11,26
676,305	91,13
676,492	379,9
676,679	254,97
676,865	105,47
677,052	158,72
677,239	168,96
677,425	201,72
677,612	60,42
677,798	82,94
677,985	396,28
678,172	271,36
678,358	121,85
678,545	-1,02
678,731	267,26
678,918	144,38
679,104	82,94
679,291	240,64
679,477	168,96
679,664	216,06
679,85	70,65
680,036	140,29
680,223	56,32
680,409	250,88
680,596	-23,55
680,782	171,01
680,968	320,51
681,155	154,62
681,341	119,81
681,527	101,37
681,714	254,97
681,9	144,38
682,086	39,94
682,272	5,12
682,459	84,99
682,645	406,52
682,831	117,76
683,017	220,16
683,204	492,54
683,39	146,43
683,576	105,47
683,762	-19,46
683,948	285,69
684,134	-64,51
684,32	123,9
684,506	134,14
684,693	486,39
684,879	-78,85
685,065	19,46
685,251	-50,18
685,437	-15,36
685,623	199,68
685,809	89,09
685,995	-25,6
686,181	158,72
686,366	164,86
686,552	31,74
686,738	-48,13
686,924	283,64
687,11	70,65
687,296	68,61
687,482	60,42
687,668	64,51
687,853	48,13
688,039	121,85
688,225	29,7
688,411	173,05
688,597	388,09
688,782	89,09
688,968	62,46
689,154	177,15
689,34	549,88
689,525	115,71
689,711	-123,9
689,897	521,21
690,082	193,53
690,268	35,84
690,454	9,22
690,639	240,64
690,825	422,91
691,01	138,24
691,196	3,07
691,381	244,73
691,567	109,57
691,753	-25,6
691,938	-99,33
692,124	64,51
692,309	203,77
692,494	78,85
692,68	-117,76
692,865	89,09
693,051	265,21
693,236	21,5
693,422	37,89
693,607	13,31
693,792	314,36
693,978	-17,41
694,163	-41,98
694,348	117,76
694,534	263,16
694,719	78,85
694,904	-25,6
695,089	265,21
695,275	136,19
695,46	-37,89
695,645	48,13
695,83	84,99
696,016	54,27
696,201	-33,79
696,386	74,75
696,571	275,45
696,756	123,9
696,941	1,02
697,126	-105,47
697,311	89,09
697,497	386,04
697,682	-3,07
697,867	33,79
698,052	125,95
698,237	424,95
698,422	-54,27
698,607	7,17
698,792	179,2
698,977	136,19
699,162	175,1
699,347	87,04
699,531	314,36
699,716	207,87
699,901	-31,74
700,086	-41,98
700,271	142,33
700,456	447,48
700,641	-66,56
700,825	-74,75
701,01	361,47
701,195	250,88
701,38	60,42
701,565	-101,37
701,749	230,4
701,934	64,51
702,119	103,42
702,303	-128
702,488	185,34
702,673	402,43
702,857	93,18
703,042	-35,84
703,227	343,03
703,411	93,18
703,596	117,76
703,78	62,46
703,965	125,95
704,15	70,65
704,334	93,18
704,519	-72,7
704,703	41,98
704,888	148,48
705,072	11,26
705,257	-21,5
705,441	-33,79
705,625	660,47
705,81	31,74
705,994	-74,75
706,179	302,08
706,363	105,47
706,547	39,94
706,732	123,9
706,916	185,34
707,1	72,7
707,285	37,89
707,469	37,89
707,653	136,19
707,837	60,42
708,022	-17,41
708,206	123,9
708,39	-25,6
708,574	203,77
708,759	-23,55
708,943	-91,13
709,127	236,54
709,311	168,96
709,495	-138,24
709,679	58,37
709,863	226,3
710,047	310,27
710,231	136,19
710,415	-97,28
710,6	369,66
710,784	-9,22
710,968	160,77
711,152	-31,74
711,336	168,96
711,519	353,27
711,703	-31,74
711,887	152,57
712,071	152,57
712,255	84,99
712,439	201,72
712,623	82,94
712,807	187,39
712,991	240,64
713,174	31,74
713,358	134,14
713,542	257,02
713,726	207,87
713,91	103,42
714,093	95,23
714,277	158,72
714,461	265,21
714,645	-29,7
714,828	-80,89
715,012	95,23
715,196	89,09
715,379	72,7
715,563	-3,07
715,747	80,89
715,93	166,91
716,114	-44,03
716,297	-125,95
716,481	70,65
716,664	246,78
716,848	-80,89
717,031	31,74
717,215	-89,09
717,398	146,43
717,582	13,31
717,765	91,13
717,949	-15,36
718,132	68,61
718,316	-189,44
718,499	-144,38
718,682	326,65
718,866	93,18
719,049	-84,99
719,233	-72,7
719,416	273,4
719,599	285,69
719,782	-111,61
719,966	-76,8
720,149	111,61
720,332	199,68
720,515	-115,71
720,699	68,61
720,882	218,11
721,065	62,46
721,248	5,12
721,431	-56,32
721,615	-66,56
721,798	322,56
721,981	5,12
722,164	-201,72
722,347	207,87
722,53	375,8
722,713	-78,85
722,896	-3,07
723,079	168,96
723,262	156,67
723,445	144,38
723,628	-123,9
723,811	101,37
723,994	68,61
724,177	13,31
724,36	-48,13
724,543	154,62
724,726	-35,84
724,909	17,41
725,091	121,85
725,274	-60,42
725,457	15,36
725,64	-179,2
725,823	-17,41
726,006	48,13
726,188	74,75
726,371	160,77
726,554	33,79
726,737	150,53
726,919	150,53
727,102	87,04
727,285	-3,07
727,467	197,63
727,65	187,39
727,833	-164,86
728,015	-60,42
728,198	23,55
728,38	101,37
728,563	-21,5
728,746	-150,53
728,928	158,72
729,111	13,31
729,293	74,75
729,476	56,32
729,658	89,09
729,841	56,32
730,023	13,31
730,205	-68,61
730,388	166,91
730,57	273,4
730,753	-27,65
730,935	-23,55
731,117	396,28
731,3	7,17
731,482	-44,03
731,664	-13,31
731,847	136,19
732,029	181,25
732,211	5,12
732,394	-201,72
732,576	72,7
732,758	287,74
732,94	60,42
733,122	-64,51
733,305	445,43
733,487	109,57
733,669	21,5
733,851	-11,26
734,033	265,21
734,215	222,2
734,397	9,22
734,58	19,46
734,762	123,9
734,944	236,54
735,126	-35,84
735,308	48,13
735,49	-46,08
735,672	19,46
735,854	-44,03
736,036	76,8
736,218	427
736,399	193,53
736,581	95,23
736,763	76,8
736,945	408,57
737,127	72,7
737,309	62,46
737,491	46,08
737,672	166,91
737,854	109,57
738,036	37,89
738,218	-31,74
738,4	-136,19
738,581	216,06
738,763	-136,19
738,945	-68,61
739,127	74,75
739,308	97,28
739,49	109,57
739,672	44,03
739,853	191,49
740,035	123,9
740,216	-17,41
740,398	-105,47
740,58	107,52
740,761	191,49
740,943	33,79
741,124	-5,12
741,306	103,42
741,487	44,03
741,669	31,74
741,85	-117,76
742,032	232,44
742,213	115,71
742,394	-31,74
742,576	19,46
742,757	392,19
742,939	166,91
743,12	-134,14
743,301	-39,94
743,483	54,27
743,664	-58,37
743,845	-5,12
744,027	-27,65
744,208	39,94
744,389	156,67
744,57	15,36
744,752	11,26
744,933	123,9
745,114	50,18
745,295	1,02
745,476	119,81
745,657	13,31
745,839	66,56
746,02	60,42
746,201	64,51
746,382	230,4
746,563	353,27
746,744	-9,22
746,925	-189,44
747,106	187,39
747,287	152,57
747,468	-13,31
747,649	171,01
747,83	144,38
748,011	275,45
748,192	72,7
748,373	-76,8
748,554	-78,85
748,735	148,48
748,915	-60,42
749,096	-3,07
749,277	179,2
749,458	357,37
749,639	-37,89
749,82	44,03
750	-27,65
750,181	240,64
750,362	-23,55
750,543	58,37
750,723	224,25
750,904	72,7
751,085	-99,33
751,265	-5,12
751,446	179,2
751,627	50,18
751,807	-21,5
751,988	-37,89
752,169	242,68
752,349	132,09
752,53	-48,13
752,71	-132,09
752,891	275,45
753,071	160,77
753,252	-144,38
753,432	-54,27
753,613	136,19
753,793	232,44
753,974	-64,51
754,154	44,03
754,334	205,82
754,515	-11,26
754,695	148,48
754,876	50,18
755,056	488,44
755,236	121,85
755,417	56,32
755,597	-15,36
755,777	39,94
755,957	197,63
756,138	-58,37
756,318	31,74
756,498	128
756,678	209,92
756,859	187,39
757,039	9,22
757,219	293,88
757,399	111,61
757,579	-1,02
757,759	-68,61
757,939	-166,91
758,119	279,55
758,3	11,26
758,48	-11,26
758,66	125,95
758,84	-99,33
759,02	-27,65
759,2	-205,82
759,38	136,19
759,56	224,25
759,74	-70,65
759,919	-144,38
760,099	226,3
760,279	179,2
760,459	64,51
760,639	-64,51
760,819	115,71
760,999	-128
761,178	-101,37
761,358	-78,85
761,538	-1,02
761,718	21,5
761,898	-134,14
762,077	-33,79
762,257	111,61
762,437	130,05
762,616	-50,18
762,796	-144,38
762,976	123,9
763,155	13,31
763,335	-109,57
763,515	-132,09
763,694	257,02
763,874	-25,6
764,053	29,7
764,233	-54,27
764,413	23,55
764,592	101,37
764,772	146,43
764,951	-44,03
765,131	33,79
765,31	134,14
765,489	52,22
765,669	-89,09
765,848	269,31
766,028	58,37
766,207	-113,66
766,386	-95,23
766,566	-76,8
766,745	140,29
766,924	70,65
767,104	-21,5
767,283	-27,65
767,462	242,68
767,642	-1,02
767,821	-119,81
768	-168,96
768,179	74,75
768,358	5,12
768,538	-66,56
768,717	35,84
768,896	144,38
769,075	72,7
769,254	-162,81
769,433	201,72
769,612	252,92
769,791	-179,2
769,97	-58,37
770,149	228,35
770,328	-60,42
770,507	3,07
770,686	-144,38
770,865	222,2
771,044	39,94
771,223	-142,33
771,402	-103,42
771,581	154,62
771,76	-21,5
771,939	9,22
772,118	-117,76
772,297	56,32
772,475	156,67
772,654	125,95
772,833	-31,74
773,012	390,14
773,191	195,58
773,369	60,42
773,548	25,6
773,727	-185,34
773,906	377,85
774,084	-27,65
774,263	-144,38
774,442	78,85
774,62	25,6
774,799	-107,52
774,977	9,22
775,156	254,97
775,335	287,74
775,513	-5,12
775,692	-121,85
775,87	535,54
776,049	19,46
776,227	-117,76
776,406	-68,61
776,584	60,42
776,763	201,72
776,941	-207,87
777,119	-160,77
777,298	-76,8
777,476	267,26
777,655	-64,51
777,833	-121,85
778,011	242,68
778,19	316,41
778,368	7,17
778,546	-187,39
778,725	324,6
778,903	70,65
779,081	-11,26
779,259	-125,95
779,437	39,94
779,616	44,03
779,794	-99,33
779,972	5,12
780,15	103,42
780,328	89,09
780,506	-46,08
780,685	-25,6
780,863	58,37
781,041	-60,42
781,219	-25,6
781,397	44,03
781,575	97,28
781,753	80,89
781,931	-113,66
782,109	-97,28
782,287	9,22
782,465	113,66
782,643	-50,18
782,82	-25,6
782,998	318,46
783,176	228,35
783,354	-84,99
783,532	-95,23
783,71	152,57
783,888	136,19
784,065	-154,62
784,243	-29,7
784,421	52,22
784,599	154,62
784,776	56,32
784,954	-107,52
785,132	87,04
785,31	-66,56
785,487	-113,66
785,665	15,36
785,842	103,42
786,02	515,06
786,198	-154,62
786,375	-91,13
786,553	132,09
786,73	97,28
786,908	-84,99
787,085	-25,6
787,263	13,31
787,44	203,77
787,618	-15,36
787,795	-171,01
787,973	-162,81
788,15	230,4
788,328	-5,12
788,505	15,36
788,682	162,81
788,86	87,04
789,037	-62,46
789,215	-50,18
789,392	62,46
789,569	351,23
789,746	-62,46
789,924	-128
790,101	201,72
790,278	265,21
790,455	-52,22
790,633	-25,6
790,81	138,24
790,987	7,17
791,164	-132,09
791,341	-99,33
791,518	-50,18
791,695	146,43
791,873	-82,94
792,05	-156,67
792,227	9,22
792,404	37,89
792,581	-29,7
792,758	23,55
792,935	29,7
793,112	154,62
793,289	-46,08
793,466	-50,18
793,643	54,27
793,82	-123,9
793,996	-128
794,173	-105,47
794,35	-261,12
794,527	267,26
794,704	48,13
794,881	-156,67
795,057	162,81
795,234	-123,9
795,411	-25,6
795,588	-154,62
795,765	-25,6
795,941	-54,27
796,118	-134,14
796,295	-72,7
796,471	154,62
796,648	-72,7
796,825	29,7
797,001	-91,13
797,178	291,84
797,354	267,26
797,531	-115,71
797,708	-76,8
797,884	314,36
798,061	-29,7
798,237	-130,05
798,414	-238,59
798,59	185,34
798,767	140,29
798,943	-138,24
799,119	-41,98
799,296	76,8
799,472	60,42
799,649	-171,01
799,825	-93,18
800,001	-74,75
800,178	-97,28
800,354	-1,02
800,53	-128
800,707	-121,85
800,883	-58,37
801,059	-125,95
801,235	269,31
801,411	-5,12
801,588	-130,05
801,764	44,03
801,94	-199,68
802,116	-41,98
802,292	-113,66
802,468	-56,32
802,645	-60,42
802,821	252,92
802,997	140,29
803,173	-189,44
803,349	-138,24
803,525	23,55
803,701	87,04
803,877	-74,75
804,053	-130,05
804,229	121,85
804,405	177,15
804,581	-101,37
804,756	-160,77
804,932	-89,09
805,108	37,89
805,284	-160,77
805,46	-117,76
805,636	60,42
805,812	31,74
805,987	-97,28
806,163	-130,05
806,339	2673,62
806,515	-136,19
806,69	-66,56
806,866	-89,09
807,042	246,78
807,217	80,89
807,393	-111,61
807,569	-171,01
807,744	291,84
807,92	484,34
808,096	-150,53
808,271	-68,61
808,447	138,24
808,622	-31,74
808,798	-27,65
808,973	-181,25
809,149	130,05
809,324	119,81
809,5	-117,76
809,675	-197,63
809,851	70,65
810,026	68,61
810,201	-105,47
810,377	-191,49
810,552	-3,07
810,728	214,01
810,903	35,84
811,078	-93,18
811,253	146,43
811,429	-119,81
811,604	-283,64
811,779	-84,99
811,955	146,43
812,13	78,85
812,305	-64,51
812,48	-158,72
812,655	228,35
812,83	308,22
813,006	-214,01
813,181	-158,72
813,356	-58,37
813,531	-60,42
813,706	-93,18
813,881	-166,91
814,056	58,37
814,231	197,63
814,406	-140,29
814,581	-242,68
814,756	107,52
814,931	66,56
815,106	-25,6
815,281	-70,65
815,456	185,34
815,631	82,94
815,805	-191,49
815,98	-68,61
816,155	66,56
816,33	160,77
816,505	-203,77
816,68	-105,47
816,854	-132,09
817,029	15,36
817,204	-142,33
817,379	-123,9
817,553	115,71
817,728	-1,02
817,903	-134,14
818,077	-111,61
818,252	103,42
818,427	185,34
818,601	-89,09
818,776	-166,91
818,95	-95,23
819,125	195,58
819,299	-125,95
819,474	-91,13
819,648	29,7
819,823	244,73
819,997	-35,84
820,172	-224,25
820,346	134,14
820,521	93,18
820,695	-111,61
820,87	-187,39
821,044	-117,76
821,218	58,37
821,393	44,03
821,567	-211,96
821,741	-25,6
821,916	1,02
822,09	-80,89
822,264	-117,76
822,438	-115,71
822,613	-29,7
822,787	-62,46
822,961	-156,67
823,135	158,72
823,309	3,07
823,483	-142,33
823,658	-121,85
823,832	277,5
824,006	-84,99
824,18	-101,37
824,354	-99,33
824,528	44,03
824,702	162,81
824,876	-197,63
825,05	-19,46
825,224	95,23
825,398	109,57
825,572	-168,96
825,746	-205,82
825,92	275,45
826,093	46,08
826,267	37,89
826,441	-103,42
826,615	328,7
826,789	226,3
826,963	-62,46
827,136	-58,37
827,31	39,94
827,484	-99,33
827,658	-171,01
827,831	-181,25
828,005	27,65
828,179	-93,18
828,353	-62,46
828,526	-91,13
828,7	103,42
828,873	-93,18
829,047	-125,95
829,221	-191,49
829,394	-1,02
829,568	70,65
829,741	-148,48
829,915	-181,25
830,088	310,27
830,262	252,92
830,435	-103,42
830,609	-91,13
830,782	105,47
830,956	168,96
831,129	-23,55
831,302	-138,24
831,476	-33,79
831,649	-130,05
831,822	-7,17
831,996	-144,38
832,169	252,92
832,342	-156,67
832,516	-132,09
832,689	-224,25
832,862	216,06
833,035	252,92
833,209	64,51
833,382	-78,85
833,555	-134,14
833,728	-74,75
833,901	-189,44
834,074	-97,28
834,247	25,6
834,42	115,71
834,594	-171,01
834,767	-23,55
834,94	203,77
835,113	263,16
835,286	-50,18
835,459	-105,47
835,632	23,55
835,805	-9,22
835,977	-89,09
836,15	-27,65
836,323	-70,65
836,496	230,4
836,669	-101,37
836,842	-154,62
837,015	216,06
837,188	56,32
837,36	-82,94
837,533	-48,13
837,706	168,96
837,879	332,79
838,051	-240,64
838,224	-74,75
838,397	41,98
838,569	97,28
838,742	-119,81
838,915	-123,9
839,087	191,49
839,26	218,11
839,433	-142,33
839,605	68,61
839,778	-185,34
839,95	173,05
840,123	-13,31
840,295	-72,7
840,468	-37,89
840,64	7,17
840,813	-48,13
840,985	-48,13
841,158	103,42
841,33	119,81
841,502	-142,33
841,675	-162,81
841,847	238,59
842,019	154,62
842,192	-115,71
842,364	-87,04
842,536	84,99
842,709	56,32
842,881	-107,52
843,053	-46,08
843,225	-5,12
843,398	332,79
843,57	-54,27
843,742	-101,37
843,914	226,3
844,086	328,7
844,258	-236,54
844,43	-64,51
844,602	285,69
844,775	58,37
844,947	-117,76
845,119	-158,72
845,291	408,57
845,463	338,94
845,635	-119,81
845,807	-68,61
845,979	175,1
846,15	89,09
846,322	-125,95
846,494	-35,84
846,666	-13,31
846,838	191,49
847,01	-156,67
847,182	-109,57
847,354	150,53
847,525	205,82
847,697	-144,38
847,869	-150,53
848,041	144,38
848,212	246,78
848,384	-263,16
848,556	-64,51
848,727	136,19
848,899	-87,04
849,071	-66,56
849,242	-48,13
849,414	320,51
849,585	154,62
849,757	-140,29
849,929	3,07
850,1	-41,98
850,272	297,98
850,443	-70,65
850,615	-5,12
850,786	74,75
850,958	-41,98
851,129	-33,79
851,3	-39,94
851,472	39,94
851,643	64,51
851,815	-17,41
851,986	-17,41
852,157	146,43
852,329	461,82
852,5	-166,91
852,671	11,26
852,842	97,28
853,014	74,75
853,185	-152,57
853,356	-119,81
853,527	171,01
853,698	84,99
853,87	-39,94
854,041	48,13
854,212	52,22
854,383	136,19
854,554	-144,38
854,725	-44,03
854,896	199,68
855,067	31,74
855,238	-201,72
855,409	-132,09
855,58	-27,65
855,751	404,47
855,922	-56,32
856,093	611,32
856,264	-138,24
856,435	66,56
856,606	-93,18
856,777	-91,13
856,948	52,22
857,118	-5,12
857,289	-39,94
857,46	84,99
857,631	242,68
857,802	134,14
857,972	-72,7
858,143	50,18
858,314	17,41
858,484	-103,42
858,655	-224,25
858,826	-25,6
858,996	146,43
859,167	353,27
859,338	-242,68
859,508	-117,76
859,679	111,61
859,849	5,12
860,02	-103,42
860,19	-80,89
860,361	257,02
860,531	-74,75
860,702	-76,8
860,872	-7,17
861,043	-21,5
861,213	283,64
861,384	-103,42
861,554	-66,56
861,724	-181,25
861,895	89,09
862,065	58,37
862,235	-60,42
862,406	142,33
862,576	68,61
862,746	-101,37
862,916	-82,94
863,087	447,48
863,257	95,23
863,427	-152,57
863,597	-101,37
863,767	273,4
863,937	-162,81
864,108	-27,65
864,278	-103,42
864,448	269,31
864,618	291,84
864,788	-132,09
864,958	50,18
865,128	11,26
865,298	46,08
865,468	-136,19
865,638	-205,82
865,808	119,81
865,978	437,24
866,148	-162,81
866,318	-189,44
866,487	275,45
866,657	56,32
866,827	-1,02
866,997	-197,63
867,167	318,46
867,337	171,01
867,506	-128
867,676	-52,22
867,846	7,17
868,016	191,49
868,185	-254,97
868,355	-29,7
868,525	199,68
868,694	134,14
868,864	-134,14
869,034	-50,18
869,203	152,57
869,373	80,89
869,542	-93,18
869,712	-113,66
869,881	136,19
870,051	46,08
870,22	-117,76
870,39	-72,7
870,559	82,94
870,729	-197,63
870,898	-48,13
871,068	-136,19
871,237	13,31
871,406	-50,18
871,576	-68,61
871,745	-93,18
871,914	70,65
872,084	7,17
872,253	-138,24
872,422	-185,34
872,591	267,26
872,761	-113,66
872,93	146,43
873,099	-121,85
873,268	11,26
873,437	-136,19
873,607	-248,83
873,776	-91,13
873,945	31,74
874,114	-70,65
874,283	-152,57
874,452	54,27
874,621	195,58
874,79	216,06
874,959	-123,9
875,128	-148,48
875,297	39,94
875,466	257,02
875,635	-111,61
875,804	-72,7
875,973	-15,36
876,142	216,06
876,31	-205,82
876,479	-117,76
876,648	138,24
876,817	9,22
876,986	-78,85
877,155	13,31
877,323	-33,79
877,492	234,49
877,661	-62,46
877,829	-46,08
877,998	7,17
878,167	130,05
878,335	-156,67
878,504	-191,49
878,673	-5,12
878,841	-80,89
879,01	-29,7
879,178	-138,24
879,347	64,51
879,515	119,81
879,684	-29,7
879,852	-166,91
880,021	-41,98
880,189	56,32
880,358	-164,86
880,526	211,96
880,695	-148,48
880,863	179,2
881,031	-132,09
881,2	-154,62
881,368	-50,18
881,536	314,36
881,705	-150,53
881,873	-181,25
882,041	166,91
882,21	64,51
882,378	-52,22
882,546	-103,42
882,714	44,03
882,882	-21,5
883,05	-7,17
883,219	-109,57
883,387	-7,17
883,555	7,17
883,723	-240,64
883,891	-158,72
884,059	-128
884,227	121,85
884,395	-123,9
884,563	-25,6
884,731	64,51
884,899	257,02
885,067	-175,1
885,235	-74,75
885,403	185,34
885,571	166,91
885,739	-240,64
