Data from LED  orange_USB4F035431__1__13-02-51-917.txt Node

Date: Tue Feb 02 13:02:51 CET 2021
User: Praktikum
Spectrometer: USB4F03543
Trigger mode: 4
Integration Time (sec): 4,000000E-1
Scans to average: 1
Electric dark correction enabled: true
Nonlinearity correction enabled: false
Boxcar width: 0
XAxis mode: Wavelengths
Number of Pixels in Spectrum: 3648
>>>>>Begin Spectral Data<<<<<
179,969	-620,36
180,181	-620,36
180,394	-620,36
180,606	-567,12
180,819	-595,79
181,031	217,26
181,243	389,28
181,456	-204,63
181,668	-110,42
181,88	274,6
182,093	16,55
182,305	-259,92
182,518	-204,63
182,73	309,41
182,942	65,71
183,155	-288,59
183,367	-204,63
183,579	231,59
183,791	254,12
184,004	-196,43
184,216	-159,57
184,428	145,58
184,641	8,36
184,853	-300,88
185,065	-245,59
185,277	161,96
185,49	284,84
185,702	-253,78
185,914	-261,97
186,126	178,34
186,338	170,15
186,551	-323,41
186,763	-212,82
186,975	-132,95
187,187	190,63
187,399	-323,41
187,612	-229,2
187,824	65,71
188,036	125,1
188,248	-79,7
188,46	-184,15
188,672	157,86
188,885	12,46
189,097	-124,76
189,309	-214,87
189,521	69,8
189,733	209,06
189,945	-157,52
190,157	-44,88
190,369	28,84
190,581	26,79
190,794	-106,32
191,006	-282,45
191,218	63,66
191,43	219,3
191,642	-261,97
191,854	-130,9
192,066	237,74
192,278	155,82
192,49	-296,78
192,702	-141,14
192,914	180,39
193,126	192,68
193,338	-206,67
193,55	-188,24
193,762	286,89
193,974	-153,43
194,186	-302,93
194,398	-212,82
194,61	123,05
194,822	209,06
195,034	-182,1
195,246	6,31
195,457	133,29
195,669	366,76
195,881	-184,15
196,093	-245,59
196,305	143,53
196,517	-229,2
196,729	-227,15
196,941	-212,82
197,153	336,04
197,365	377
197,576	-378,7
197,788	-210,77
198	252,07
198,212	350,37
198,424	-243,54
198,636	-239,44
198,847	-83,8
199,059	153,77
199,271	-278,35
199,483	-237,39
199,695	104,62
199,906	204,97
200,118	-180,05
200,33	-104,28
200,542	845,98
200,753	47,27
200,965	-245,59
201,177	-225,11
201,389	166,06
201,6	-94,04
201,812	-180,05
202,024	-128,85
202,235	-10,07
202,447	321,7
202,659	-212,82
202,871	-188,24
203,082	-5,97
203,294	-24,4
203,506	-229,2
203,717	-116,56
203,929	157,86
204,141	-51,03
204,352	-173,91
204,564	-184,15
204,775	8,36
204,987	333,99
205,199	-210,77
205,41	-151,38
205,622	301,22
205,833	57,51
206,045	-206,67
206,257	-184,15
206,468	-153,43
206,68	-51,03
206,891	-114,52
207,103	-196,43
207,314	-132,95
207,526	135,34
207,737	-225,11
207,949	-100,18
208,16	182,44
208,372	80,04
208,583	-235,35
208,795	-296,78
209,006	80,04
209,218	137,38
209,429	-282,45
209,641	-175,95
209,852	2,22
210,064	153,77
210,275	-208,72
210,487	-221,01
210,698	272,55
210,909	268,45
211,121	-112,47
211,332	-69,46
211,544	211,11
211,755	301,22
211,966	-22,36
212,178	-216,91
212,389	442,53
212,6	123,05
212,812	-16,21
213,023	-161,62
213,234	276,65
213,446	137,38
213,657	-231,25
213,868	-251,73
214,08	344,23
214,291	114,86
214,502	-165,71
214,714	-153,43
214,925	14,51
215,136	-51,03
215,347	-81,75
215,559	-280,4
215,77	-108,37
215,981	350,37
216,192	-317,26
216,404	-280,4
216,615	221,35
216,826	190,63
217,037	-149,33
217,249	-155,47
217,46	309,41
217,671	75,95
217,882	-255,83
218,093	-233,3
218,304	114,86
218,516	174,25
218,727	-364,37
218,938	-231,25
219,149	325,8
219,36	145,58
219,571	-296,78
219,782	-225,11
219,993	385,19
220,205	-55,12
220,416	-190,29
220,627	-184,15
220,838	229,54
221,049	512,16
221,26	-257,87
221,471	-186,19
221,682	96,43
221,893	311,46
222,104	-284,5
222,315	-300,88
222,526	-81,75
222,737	61,61
222,948	-298,83
223,159	-130,9
223,37	114,86
223,581	24,75
223,792	-137,04
224,003	-149,33
224,214	-59,22
224,425	135,34
224,636	-335,7
224,847	-55,12
225,058	139,43
225,269	151,72
225,48	-223,06
225,691	-352,08
225,902	180,39
226,112	8,36
226,323	-313,17
226,534	-272,21
226,745	86,19
226,956	-69,46
227,167	-120,66
227,378	-110,42
227,589	-28,5
227,799	348,33
228,01	-294,74
228,221	-249,68
228,432	39,08
228,643	-100,18
228,853	-112,47
229,064	-206,67
229,275	43,18
229,486	-30,55
229,697	-249,68
229,907	-192,34
230,118	47,27
230,329	10,41
230,54	-253,78
230,75	-143,19
230,961	303,27
231,172	39,08
231,383	-227,15
231,593	-276,31
231,804	190,63
232,015	123,05
232,225	-247,63
232,436	-270,16
232,647	223,4
232,857	288,93
233,068	-255,83
233,279	-202,58
233,489	90,28
233,7	49,32
233,91	-292,69
234,121	-145,24
234,332	127,14
234,542	65,71
234,753	-290,64
234,964	-132,95
235,174	-40,79
235,385	266,41
235,595	-182,1
235,806	-128,85
236,016	-28,5
236,227	10,41
236,437	-323,41
236,648	-253,78
236,858	110,76
237,069	-89,94
237,279	-206,67
237,49	-237,39
237,7	145,58
237,911	88,23
238,121	-274,26
238,332	-208,72
238,542	172,2
238,753	18,6
238,963	-206,67
239,174	-198,48
239,384	118,95
239,595	-44,88
239,805	-251,73
240,015	-261,97
240,226	123,05
240,436	127,14
240,647	-186,19
240,857	-188,24
241,067	121
241,278	719,01
241,488	-274,26
241,698	-139,09
241,909	-61,27
242,119	151,72
242,329	-182,1
242,54	-167,76
242,75	59,56
242,96	-63,32
243,171	-155,47
243,381	-202,58
243,591	-48,98
243,801	360,61
244,012	-16,21
244,222	-202,58
244,432	-178
244,642	-71,51
244,853	-212,82
245,063	-169,81
245,273	143,53
245,483	77,99
245,694	-130,9
245,904	-153,43
246,114	192,68
246,324	-38,74
246,534	-178
246,744	-257,87
246,955	-198,48
247,165	307,37
247,375	14,51
247,585	-153,43
247,795	75,95
248,005	168,1
248,215	-163,67
248,425	-206,67
248,636	512,16
248,846	-16,21
249,056	-284,5
249,266	-298,83
249,476	94,38
249,686	61,61
249,896	-294,74
250,106	-233,3
250,316	61,61
250,526	499,88
250,736	-268,11
250,946	110,76
251,156	311,46
251,366	65,71
251,576	-155,47
251,786	-147,28
251,996	-28,5
252,206	-102,23
252,416	-259,92
252,626	-235,35
252,836	-175,95
253,046	135,34
253,256	-120,66
253,466	-104,28
253,676	92,33
253,885	133,29
254,095	-210,77
254,305	-159,57
254,515	141,48
254,725	39,08
254,935	-261,97
255,145	-169,81
255,355	178,34
255,564	77,99
255,774	-132,95
255,984	88,23
256,194	51,37
256,404	-53,08
256,614	-192,34
256,823	-63,32
257,033	30,89
257,243	270,5
257,453	-294,74
257,662	-257,87
257,872	186,54
258,082	106,67
258,292	-196,43
258,501	-155,47
258,711	686,24
258,921	432,29
259,131	-247,63
259,34	-204,63
259,55	77,99
259,76	-61,27
259,969	-212,82
260,179	-184,15
260,389	41,13
260,598	299,17
260,808	-96,08
261,018	-173,91
261,227	297,13
261,437	57,51
261,647	-202,58
261,856	-311,12
262,066	164,01
262,275	413,86
262,485	-290,64
262,694	-112,47
262,904	24,75
263,114	217,26
263,323	-296,78
263,533	-141,14
263,742	-10,07
263,952	37,03
264,161	-255,83
264,371	-208,72
264,58	4,27
264,79	59,56
264,999	-126,8
265,209	-282,45
265,418	272,55
265,628	147,62
265,837	-225,11
266,047	-216,91
266,256	368,81
266,466	-24,4
266,675	-278,35
266,884	-204,63
267,094	98,47
267,303	247,97
267,513	-161,62
267,722	-57,17
267,931	168,1
268,141	-18,26
268,35	-245,59
268,559	-116,56
268,769	-26,45
268,978	-161,62
269,187	-321,36
269,397	-223,06
269,606	-100,18
269,815	-51,03
270,025	-214,87
270,234	-98,13
270,443	-122,71
270,653	45,23
270,862	-266,07
271,071	-143,19
271,28	-5,97
271,49	45,23
271,699	-245,59
271,908	-69,46
272,117	90,28
272,327	69,8
272,536	-288,59
272,745	-227,15
272,954	24,75
273,163	73,9
273,372	182,44
273,582	-167,76
273,791	20,65
274	-14,17
274,209	-61,27
274,418	-1,88
274,627	319,65
274,836	45,23
275,046	8,36
275,255	-55,12
275,464	-36,69
275,673	-57,17
275,882	-24,4
276,091	-16,21
276,3	170,15
276,509	-8,02
276,718	2,22
276,927	-194,39
277,136	186,54
277,345	41,13
277,554	24,75
277,763	65,71
277,972	172,2
278,181	90,28
278,39	-108,37
278,599	-32,6
278,808	-100,18
279,017	178,34
279,226	-128,85
279,435	-57,17
279,644	14,51
279,853	151,72
280,062	290,98
280,271	-124,76
280,48	-30,55
280,688	0,17
280,897	16,55
281,106	-120,66
281,315	-89,94
281,524	41,13
281,733	6,31
281,942	10,41
282,151	110,76
282,359	178,34
282,568	-139,09
282,777	18,6
282,986	96,43
283,195	100,52
283,403	-1,88
283,612	-77,65
283,821	-1,88
284,03	-20,31
284,238	-14,17
284,447	47,27
284,656	-26,45
284,865	82,09
285,073	-34,64
285,282	-77,65
285,491	0,17
285,699	-188,24
285,908	20,65
286,117	-32,6
286,325	8,36
286,534	309,41
286,743	-28,5
286,951	-65,36
287,16	211,11
287,369	-18,26
287,577	-65,36
287,786	-65,36
287,995	49,32
288,203	-116,56
288,412	-26,45
288,62	10,41
288,829	-79,7
289,037	-18,26
289,246	-34,64
289,455	-145,24
289,663	180,39
289,872	186,54
290,08	-28,5
290,289	129,19
290,497	-180,05
290,706	104,62
290,914	-126,8
291,123	-124,76
291,331	108,71
291,54	252,07
291,748	71,85
291,957	0,17
292,165	88,23
292,373	-167,76
292,582	-16,21
292,79	-77,65
292,999	77,99
293,207	204,97
293,415	-77,65
293,624	-145,24
293,832	80,04
294,041	164,01
294,249	-28,5
294,457	-114,52
294,666	180,39
294,874	-192,34
295,082	49,32
295,291	24,75
295,499	88,23
295,707	125,1
295,915	32,94
296,124	22,7
296,332	82,09
296,54	104,62
296,749	73,9
296,957	24,75
297,165	8,36
297,373	-30,55
297,581	-67,41
297,79	-14,17
297,998	-87,89
298,206	-75,6
298,414	-8,02
298,622	24,75
298,831	166,06
299,039	-20,31
299,247	53,42
299,455	-46,93
299,663	276,65
299,871	147,62
300,08	-139,09
300,288	-102,23
300,496	-3,93
300,704	0,17
300,912	-122,71
301,12	-16,21
301,328	-34,64
301,536	32,94
301,744	-147,28
301,952	-112,47
302,16	-116,56
302,368	-67,41
302,576	8,36
302,784	71,85
302,992	-188,24
303,2	-8,02
303,408	-114,52
303,616	-110,42
303,824	192,68
304,032	170,15
304,24	221,35
304,448	-20,31
304,656	-38,74
304,864	299,17
305,072	24,75
305,28	12,46
305,488	-1,88
305,696	59,56
305,904	28,84
306,111	-286,54
306,319	26,79
306,527	16,55
306,735	10,41
306,943	16,55
307,151	71,85
307,359	-96,08
307,566	-24,4
307,774	137,38
307,982	168,1
308,19	-94,04
308,398	-71,51
308,605	-75,6
308,813	-87,89
309,021	41,13
309,229	75,95
309,436	-175,95
309,644	100,52
309,852	135,34
310,06	61,61
310,267	-130,9
310,475	67,75
310,683	61,61
310,89	-51,03
311,098	18,6
311,306	-8,02
311,513	247,97
311,721	-48,98
311,929	6,31
312,136	80,04
312,344	41,13
312,552	145,58
312,759	-30,55
312,967	194,73
313,174	196,78
313,382	57,51
313,589	39,08
313,797	254,12
314,005	90,28
314,212	0,17
314,42	-204,63
314,627	-20,31
314,835	-102,23
315,042	-67,41
315,25	-180,05
315,457	-102,23
315,665	-247,63
315,872	133,29
316,08	-1,88
316,287	-3,93
316,495	477,35
316,702	-44,88
316,909	-147,28
317,117	227,5
317,324	106,67
317,532	153,77
317,739	-85,84
317,946	-57,17
318,154	-67,41
318,361	-48,98
318,569	98,47
318,776	-32,6
318,983	-161,62
319,191	49,32
319,398	-24,4
319,605	-12,12
319,813	94,38
320,02	-210,77
320,227	69,8
320,434	161,96
320,642	-1,88
320,849	-55,12
321,056	-5,97
321,264	135,34
321,471	-24,4
321,678	-14,17
321,885	-173,91
322,092	137,38
322,3	69,8
322,507	-198,48
322,714	-61,27
322,921	32,94
323,128	-65,36
323,336	-153,43
323,543	-26,45
323,75	178,34
323,957	94,38
324,164	16,55
324,371	88,23
324,578	-214,87
324,786	182,44
324,993	-44,88
325,2	-3,93
325,407	-278,35
325,614	-36,69
325,821	135,34
326,028	153,77
326,235	125,1
326,442	57,51
326,649	-46,93
326,856	-8,02
327,063	-114,52
327,27	-24,4
327,477	49,32
327,684	-147,28
327,891	-77,65
328,098	188,58
328,305	90,28
328,512	-118,61
328,719	155,82
328,926	276,65
329,133	-141,14
329,34	190,63
329,546	47,27
329,753	73,9
329,96	-173,91
330,167	82,09
330,374	20,65
330,581	258,21
330,788	-153,43
330,995	-1,88
331,201	67,75
331,408	51,37
331,615	14,51
331,822	-102,23
332,029	16,55
332,235	0,17
332,442	-57,17
332,649	-24,4
332,856	-100,18
333,062	-30,55
333,269	-51,03
333,476	-38,74
333,683	65,71
333,889	98,47
334,096	-14,17
334,303	53,42
334,509	-3,93
334,716	123,05
334,923	-16,21
335,129	-34,64
335,336	77,99
335,543	45,23
335,749	-116,56
335,956	147,62
336,163	-192,34
336,369	118,95
336,576	0,17
336,782	59,56
336,989	-65,36
337,196	2,22
337,402	-122,71
337,609	-233,3
337,815	77,99
338,022	164,01
338,228	4,27
338,435	170,15
338,641	145,58
338,848	215,21
339,054	106,67
339,261	-112,47
339,467	-178
339,674	196,78
339,88	37,03
340,087	-124,76
340,293	-63,32
340,5	24,75
340,706	135,34
340,912	-163,67
341,119	-53,08
341,325	-10,07
341,532	-61,27
341,738	-116,56
341,944	164,01
342,151	28,84
342,357	-83,8
342,563	-12,12
342,77	69,8
342,976	-22,36
343,182	65,71
343,389	-69,46
343,595	-89,94
343,801	-120,66
344,007	-10,07
344,214	-149,33
344,42	102,57
344,626	-63,32
344,832	-126,8
345,039	-112,47
345,245	47,27
345,451	28,84
345,657	-32,6
345,864	-73,56
346,07	96,43
346,276	53,42
346,482	161,96
346,688	102,57
346,894	-16,21
347,1	96,43
347,307	0,17
347,513	135,34
347,719	14,51
347,925	73,9
348,131	-233,3
348,337	8,36
348,543	-91,99
348,749	-130,9
348,955	24,75
349,161	-169,81
349,367	65,71
349,573	209,06
349,779	-28,5
349,985	-124,76
350,191	-51,03
350,397	135,34
350,603	135,34
350,809	-3,93
351,015	63,66
351,221	-22,36
351,427	90,28
351,633	65,71
351,839	221,35
352,045	143,53
352,251	159,91
352,457	-87,89
352,663	53,42
352,869	24,75
353,075	49,32
353,28	-94,04
353,486	49,32
353,692	-20,31
353,898	-112,47
354,104	-126,8
354,31	188,58
354,515	-155,47
354,721	53,42
354,927	-98,13
355,133	123,05
355,339	57,51
355,544	-67,41
355,75	20,65
355,956	80,04
356,162	131,24
356,367	-116,56
356,573	116,9
356,779	-89,94
356,984	127,14
357,19	188,58
357,396	-5,97
357,602	389,28
357,807	28,84
358,013	-75,6
358,218	41,13
358,424	-48,98
358,63	-77,65
358,835	-102,23
359,041	-124,76
359,247	57,51
359,452	-65,36
359,658	-190,29
359,863	-48,98
360,069	121
360,274	30,89
360,48	57,51
360,685	-42,84
360,891	186,54
361,097	-89,94
361,302	-83,8
361,508	114,86
361,713	57,51
361,918	360,61
362,124	-46,93
362,329	55,47
362,535	57,51
362,74	-18,26
362,946	-26,45
363,151	-55,12
363,357	118,95
363,562	-73,56
363,767	-169,81
363,973	18,6
364,178	-59,22
364,383	-18,26
364,589	-42,84
364,794	-106,32
365	98,47
365,205	108,71
365,41	-110,42
365,615	-30,55
365,821	-38,74
366,026	256,17
366,231	61,61
366,437	149,67
366,642	-180,05
366,847	200,87
367,052	-22,36
367,258	-32,6
367,463	-73,56
367,668	-8,02
367,873	88,23
368,078	133,29
368,284	-286,54
368,489	-61,27
368,694	-3,93
368,899	-132,95
369,104	116,9
369,309	135,34
369,515	-114,52
369,72	61,61
369,925	-18,26
370,13	143,53
370,335	49,32
370,54	-61,27
370,745	34,99
370,95	104,62
371,155	37,03
371,36	65,71
371,565	125,1
371,77	47,27
371,975	-194,39
372,18	131,24
372,385	190,63
372,59	129,19
372,795	-63,32
373	65,71
373,205	196,78
373,41	2,22
373,615	-77,65
373,82	-259,92
374,025	-1,88
374,23	-198,48
374,435	-40,79
374,64	-5,97
374,845	153,77
375,05	32,94
375,254	-159,57
375,459	-137,04
375,664	22,7
375,869	90,28
376,074	-126,8
376,279	-171,86
376,483	86,19
376,688	-24,4
376,893	30,89
377,098	-149,33
377,303	143,53
377,507	92,33
377,712	-42,84
377,917	24,75
378,122	135,34
378,326	8,36
378,531	-122,71
378,736	-83,8
378,94	-63,32
379,145	-42,84
379,35	-3,93
379,554	-126,8
379,759	-91,99
379,964	84,14
380,168	-114,52
380,373	-98,13
380,578	237,74
380,782	475,3
380,987	59,56
381,191	-98,13
381,396	100,52
381,601	96,43
381,805	-48,98
382,01	180,39
382,214	176,3
382,419	51,37
382,623	-57,17
382,828	4,27
383,032	-16,21
383,237	-157,52
383,441	-169,81
383,646	190,63
383,85	-77,65
384,055	26,79
384,259	-12,12
384,464	-204,63
384,668	8,36
384,872	-81,75
385,077	-65,36
385,281	-75,6
385,486	-180,05
385,69	20,65
385,894	71,85
386,099	67,75
386,303	96,43
386,507	225,45
386,712	110,76
386,916	-102,23
387,12	-67,41
387,325	200,87
387,529	-22,36
387,733	28,84
387,937	-24,4
388,142	-63,32
388,346	-159,57
388,55	69,8
388,754	30,89
388,959	-34,64
389,163	-36,69
389,367	-100,18
389,571	-85,84
389,775	127,14
389,98	-20,31
390,184	-3,93
390,388	-28,5
390,592	121
390,796	-83,8
391	-14,17
391,204	-124,76
391,409	-34,64
391,613	-114,52
391,817	-208,72
392,021	190,63
392,225	12,46
392,429	-10,07
392,633	-32,6
392,837	-30,55
393,041	6,31
393,245	59,56
393,449	-137,04
393,653	67,75
393,857	174,25
394,061	118,95
394,265	-73,56
394,469	14,51
394,673	147,62
394,877	14,51
395,081	-42,84
395,285	155,82
395,489	90,28
395,693	-102,23
395,896	-40,79
396,1	221,35
396,304	133,29
396,508	-175,95
396,712	-67,41
396,916	-75,6
397,12	55,47
397,323	-26,45
397,527	-34,64
397,731	202,92
397,935	98,47
398,139	-28,5
398,342	49,32
398,546	106,67
398,75	-46,93
398,954	8,36
399,157	182,44
399,361	276,65
399,565	-153,43
399,769	82,09
399,972	-12,12
400,176	4,27
400,38	63,66
400,583	-16,21
400,787	67,75
400,991	112,81
401,194	114,86
401,398	37,03
401,601	10,41
401,805	196,78
402,009	153,77
402,212	47,27
402,416	293,03
402,619	-61,27
402,823	268,45
403,026	-137,04
403,23	-108,37
403,433	286,89
403,637	180,39
403,841	34,99
404,044	22,7
404,247	16,55
404,451	41,13
404,654	100,52
404,858	34,99
405,061	133,29
405,265	94,38
405,468	86,19
405,672	16,55
405,875	254,12
406,078	-5,97
406,282	-110,42
406,485	-59,22
406,689	225,45
406,892	374,95
407,095	18,6
407,299	-10,07
407,502	202,92
407,705	-124,76
407,909	-28,5
408,112	28,84
408,315	198,82
408,518	383,14
408,722	-18,26
408,925	4,27
409,128	336,04
409,331	209,06
409,535	98,47
409,738	-14,17
409,941	440,48
410,144	250,02
410,347	196,78
410,551	104,62
410,754	90,28
410,957	227,5
411,16	-42,84
411,363	139,43
411,566	204,97
411,769	176,3
411,973	-1,88
412,176	254,12
412,379	397,48
412,582	338,09
412,785	211,11
412,988	-106,32
413,191	188,58
413,394	256,17
413,597	-38,74
413,8	51,37
414,003	469,16
414,206	92,33
414,409	161,96
414,612	82,09
414,815	157,86
415,018	114,86
415,221	92,33
415,424	247,97
415,627	293,03
415,83	272,55
416,033	166,06
416,235	55,47
416,438	366,76
416,641	356,52
416,844	90,28
417,047	-91,99
417,25	43,18
417,453	139,43
417,655	-28,5
417,858	106,67
418,061	45,23
418,264	125,1
418,467	-30,55
418,669	53,42
418,872	360,61
419,075	57,51
419,278	24,75
419,48	221,35
419,683	133,29
419,886	57,51
420,089	32,94
420,291	233,64
420,494	-28,5
420,697	30,89
420,899	186,54
421,102	-85,84
421,305	329,89
421,507	178,34
421,71	77,99
421,912	153,77
422,115	43,18
422,318	243,88
422,52	133,29
422,723	4,27
422,925	241,83
423,128	413,86
423,33	55,47
423,533	-8,02
423,735	182,44
423,938	127,14
424,14	8,36
424,343	221,35
424,545	352,42
424,748	288,93
424,95	104,62
425,153	-16,21
425,355	143,53
425,558	301,22
425,76	106,67
425,962	170,15
426,165	168,1
426,367	123,05
426,57	57,51
426,772	32,94
426,974	276,65
427,177	-14,17
427,379	47,27
427,581	180,39
427,784	14,51
427,986	51,37
428,188	28,84
428,39	-73,56
428,593	135,34
428,795	282,79
428,997	94,38
429,2	71,85
429,402	213,16
429,604	-28,5
429,806	16,55
430,008	399,52
430,211	233,64
430,413	86,19
430,615	80,04
430,817	51,37
431,019	149,67
431,221	266,41
431,423	-59,22
431,626	67,75
431,828	139,43
432,03	8,36
432,232	135,34
432,434	121
432,636	170,15
432,838	39,08
433,04	299,17
433,242	172,2
433,444	92,33
433,646	399,52
433,848	41,13
434,05	127,14
434,252	139,43
434,454	112,81
434,656	-61,27
434,858	12,46
435,06	65,71
435,262	290,98
435,464	63,66
435,666	217,26
435,868	430,24
436,07	215,21
436,271	77,99
436,473	2,22
436,675	428,2
436,877	127,14
437,079	168,1
437,281	75,95
437,482	125,1
437,684	-20,31
437,886	69,8
438,088	141,48
438,29	133,29
438,491	243,88
438,693	41,13
438,895	55,47
439,097	307,37
439,298	198,82
439,5	96,43
439,702	-40,79
439,903	131,24
440,105	235,69
440,307	280,74
440,508	186,54
440,71	104,62
440,912	456,87
441,113	34,99
441,315	200,87
441,517	32,94
441,718	303,27
441,92	94,38
442,121	235,69
442,323	88,23
442,524	6,31
442,726	225,45
442,928	67,75
443,129	116,9
443,331	211,11
443,532	178,34
443,734	-12,12
443,935	327,85
444,136	12,46
444,338	114,86
444,539	129,19
444,741	356,52
444,942	313,51
445,144	159,91
445,345	299,17
445,546	65,71
445,748	145,58
445,949	112,81
446,151	-77,65
446,352	82,09
446,553	618,66
446,755	96,43
446,956	141,48
447,157	196,78
447,359	194,73
447,56	133,29
447,761	-18,26
447,962	315,56
448,164	420
448,365	168,1
448,566	49,32
448,767	30,89
448,969	487,59
449,17	133,29
449,371	98,47
449,572	358,57
449,773	92,33
449,974	209,06
450,176	227,5
450,377	278,69
450,578	372,9
450,779	135,34
450,98	34,99
451,181	202,92
451,382	184,49
451,583	164,01
451,784	141,48
451,986	-10,07
452,187	354,47
452,388	34,99
452,589	245,93
452,79	172,2
452,991	180,39
453,192	278,69
453,393	12,46
453,594	268,45
453,795	63,66
453,995	-40,79
454,196	182,44
454,397	145,58
454,598	90,28
454,799	-34,64
455	270,5
455,201	59,56
455,402	473,25
455,603	73,9
455,804	110,76
456,004	30,89
456,205	118,95
456,406	166,06
456,607	77,99
456,808	387,24
457,008	55,47
457,209	34,99
457,41	133,29
457,611	286,89
457,811	743,58
458,012	170,15
458,213	30,89
458,414	262,31
458,614	229,54
458,815	100,52
459,016	174,25
459,216	346,28
459,417	164,01
459,618	235,69
459,818	41,13
460,019	26,79
460,22	104,62
460,42	182,44
460,621	153,77
460,821	153,77
461,022	520,35
461,223	164,01
461,423	-26,45
461,624	366,76
461,824	92,33
462,025	139,43
462,225	10,41
462,426	393,38
462,626	114,86
462,827	176,3
463,027	370,85
463,228	303,27
463,428	350,37
463,628	137,38
463,829	313,51
464,029	86,19
464,23	108,71
464,43	178,34
464,63	59,56
464,831	121
465,031	301,22
465,231	80,04
465,432	190,63
465,632	592,03
465,832	82,09
466,033	61,61
466,233	30,89
466,433	508,07
466,634	241,83
466,834	229,54
467,034	6,31
467,234	370,85
467,435	241,83
467,635	51,37
467,835	141,48
468,035	209,06
468,235	213,16
468,436	241,83
468,636	129,19
468,836	14,51
469,036	336,04
469,236	217,26
469,436	172,2
469,636	436,39
469,836	139,43
470,037	170,15
470,237	198,82
470,437	401,57
470,637	364,71
470,837	207,02
471,037	313,51
471,237	217,26
471,437	288,93
471,637	168,1
471,837	86,19
472,037	182,44
472,237	323,75
472,437	88,23
472,637	305,32
472,837	356,52
473,036	333,99
473,236	256,17
473,436	284,84
473,636	227,5
473,836	49,32
474,036	233,64
474,236	112,81
474,436	65,71
474,635	417,96
474,835	243,88
475,035	215,21
475,235	286,89
475,435	333,99
475,634	176,3
475,834	192,68
476,034	417,96
476,234	65,71
476,433	196,78
476,633	506,02
476,833	241,83
477,033	229,54
477,232	121
477,432	217,26
477,632	587,94
477,831	377
478,031	225,45
478,231	295,08
478,43	315,56
478,63	139,43
478,829	-12,12
479,029	278,69
479,229	168,1
479,428	39,08
479,628	129,19
479,827	383,14
480,027	71,85
480,226	712,86
480,426	311,46
480,625	198,82
480,825	350,37
481,024	280,74
481,224	473,25
481,423	188,58
481,623	594,08
481,822	-18,26
482,021	366,76
482,221	309,41
482,42	618,66
482,62	319,65
482,819	245,93
483,018	346,28
483,218	278,69
483,417	432,29
483,616	219,3
483,816	368,81
484,015	524,45
484,214	372,9
484,414	411,81
484,613	393,38
484,812	430,24
485,011	174,25
485,211	321,7
485,41	360,61
485,609	295,08
485,808	356,52
486,008	331,94
486,207	329,89
486,406	295,08
486,605	356,52
486,804	280,74
487,003	258,21
487,203	276,65
487,402	221,35
487,601	143,53
487,8	331,94
487,999	338,09
488,198	424,1
488,397	252,07
488,596	235,69
488,795	262,31
488,994	393,38
489,193	243,88
489,392	522,4
489,591	297,13
489,79	325,8
489,989	288,93
490,188	284,84
490,387	538,79
490,586	346,28
490,785	370,85
490,984	383,14
491,183	389,28
491,382	426,15
491,581	227,5
491,779	344,23
491,978	293,03
492,177	630,95
492,376	346,28
492,575	280,74
492,774	469,16
492,972	260,26
493,171	258,21
493,37	215,21
493,569	663,71
493,768	606,37
493,966	366,76
494,165	344,23
494,364	680,1
494,563	612,51
494,761	293,03
494,96	372,9
495,159	501,92
495,357	311,46
495,556	387,24
495,755	401,57
495,953	417,96
496,152	405,67
496,35	290,98
496,549	329,89
496,748	546,98
496,946	551,07
497,145	460,96
497,343	309,41
497,542	254,12
497,74	604,32
497,939	383,14
498,137	331,94
498,336	532,64
498,534	557,22
498,733	311,46
498,931	290,98
499,13	237,74
499,328	331,94
499,527	503,97
499,725	155,82
499,924	319,65
500,122	235,69
500,32	350,37
500,519	286,89
500,717	448,68
500,915	286,89
501,114	268,45
501,312	368,81
501,51	186,54
501,709	458,92
501,907	524,45
502,105	100,52
502,304	411,81
502,502	536,74
502,7	411,81
502,898	284,84
503,097	436,39
503,295	364,71
503,493	276,65
503,691	364,71
503,889	190,63
504,088	235,69
504,286	342,18
504,484	327,85
504,682	401,57
504,88	409,76
505,078	395,43
505,276	346,28
505,474	702,62
505,672	403,62
505,871	393,38
506,069	301,22
506,267	366,76
506,465	534,69
506,663	143,53
506,861	284,84
507,059	514,21
507,257	450,72
507,455	315,56
507,653	280,74
507,851	436,39
508,049	170,15
508,246	448,68
508,444	282,79
508,642	448,68
508,84	575,65
509,038	313,51
509,236	360,61
509,434	325,8
509,632	575,65
509,829	387,24
510,027	309,41
510,225	493,73
510,423	297,13
510,621	323,75
510,818	383,14
511,016	356,52
511,214	471,2
511,412	344,23
511,609	190,63
511,807	520,35
512,005	440,48
512,203	477,35
512,4	266,41
512,598	352,42
512,796	405,67
512,993	209,06
513,191	276,65
513,389	493,73
513,586	426,15
513,784	268,45
513,981	377
514,179	557,22
514,377	385,19
514,574	432,29
514,772	266,41
514,969	671,9
515,167	268,45
515,364	397,48
515,562	227,5
515,759	712,86
515,957	297,13
516,154	196,78
516,352	426,15
516,549	352,42
516,746	405,67
516,944	403,62
517,141	247,97
517,339	221,35
517,536	450,72
517,733	198,82
517,931	225,45
518,128	358,57
518,325	295,08
518,523	276,65
518,72	323,75
518,917	520,35
519,115	596,13
519,312	401,57
519,509	442,53
519,707	317,61
519,904	411,81
520,101	430,24
520,298	350,37
520,495	708,77
520,693	254,12
520,89	405,67
521,087	217,26
521,284	641,18
521,481	415,91
521,678	358,57
521,876	393,38
522,073	606,37
522,27	420
522,467	338,09
522,664	221,35
522,861	440,48
523,058	592,03
523,255	250,02
523,452	331,94
523,649	274,6
523,846	407,72
524,043	358,57
524,24	325,8
524,437	512,16
524,634	411,81
524,831	172,2
525,028	405,67
525,225	333,99
525,422	520,35
525,619	338,09
525,816	190,63
526,013	809,12
526,209	508,07
526,406	393,38
526,603	401,57
526,8	235,69
526,997	342,18
527,194	286,89
527,39	393,38
527,587	268,45
527,784	362,66
527,981	286,89
528,177	293,03
528,374	389,28
528,571	729,25
528,768	196,78
528,964	295,08
529,161	311,46
529,358	538,79
529,554	278,69
529,751	268,45
529,948	274,6
530,144	530,59
530,341	200,87
530,537	286,89
530,734	354,47
530,931	389,28
531,127	401,57
531,324	297,13
531,52	395,43
531,717	358,57
531,913	356,52
532,11	284,84
532,306	501,92
532,503	196,78
532,699	315,56
532,896	467,11
533,092	563,36
533,289	336,04
533,485	688,29
533,682	350,37
533,878	546,98
534,074	389,28
534,271	463,01
534,467	426,15
534,664	512,16
534,86	377
535,056	348,33
535,253	268,45
535,449	569,51
535,645	387,24
535,841	315,56
536,038	420
536,234	356,52
536,43	551,07
536,626	307,37
536,823	473,25
537,019	450,72
537,215	477,35
537,411	329,89
537,607	370,85
537,804	366,76
538	411,81
538,196	377
538,392	260,26
538,588	635,04
538,784	321,7
538,98	164,01
539,176	293,03
539,373	524,45
539,569	503,97
539,765	368,81
539,961	411,81
540,157	653,47
540,353	450,72
540,549	458,92
540,745	348,33
540,941	432,29
541,137	434,34
541,333	420
541,528	331,94
541,724	452,77
541,92	618,66
542,116	290,98
542,312	389,28
542,508	436,39
542,704	422,05
542,9	442,53
543,096	338,09
543,291	645,28
543,487	499,88
543,683	440,48
543,879	366,76
544,075	630,95
544,27	350,37
544,466	290,98
544,662	440,48
544,858	526,5
545,053	583,84
545,249	483,49
545,445	411,81
545,64	424,1
545,836	352,42
546,032	379,04
546,227	172,2
546,423	653,47
546,619	581,79
546,814	336,04
547,01	364,71
547,205	399,52
547,401	526,5
547,597	422,05
547,792	340,13
547,988	712,86
548,183	571,55
548,379	653,47
548,574	659,62
548,77	491,68
548,965	575,65
549,161	295,08
549,356	518,31
549,552	612,51
549,747	702,62
549,942	585,89
550,138	415,91
550,333	555,17
550,529	520,35
550,724	333,99
550,919	510,11
551,115	616,61
551,31	817,31
551,505	585,89
551,701	557,22
551,896	645,28
552,091	788,64
552,287	725,15
552,482	592,03
552,677	641,18
552,872	626,85
553,067	622,75
553,263	725,15
553,458	704,67
553,653	975
553,848	606,37
554,043	587,94
554,239	782,49
554,434	854,17
554,629	489,64
554,824	766,11
555,019	811,17
555,214	694,43
555,409	821,41
555,604	856,22
555,799	1018,01
555,994	921,76
556,189	721,06
556,384	678,05
556,579	1042,59
556,774	987,29
556,969	880,8
557,164	827,55
557,359	1069,21
557,554	1081,5
557,749	774,3
557,944	950,43
558,139	1097,88
558,334	936,09
558,529	950,43
558,724	944,28
558,918	1212,57
559,113	1181,85
559,308	1106,07
559,503	991,39
559,698	983,2
559,893	1233,05
560,087	1048,73
560,282	907,42
560,477	1540,24
560,672	1214,62
560,866	1136,79
561,061	1140,89
561,256	1423,51
561,45	1294,49
561,645	1308,82
561,84	1362,07
562,034	1562,77
562,229	1460,37
562,424	1403,03
562,618	1403,03
562,813	1517,72
563,008	1403,03
563,202	1642,64
563,397	1507,48
563,591	1722,51
563,786	1747,09
563,98	1577,11
564,175	1552,53
564,369	1869,97
564,564	2033,8
564,758	1884,3
564,953	1837,2
565,147	2062,48
565,342	2087,05
565,536	1888,4
565,731	1996,94
565,925	2246,79
566,119	1978,51
566,314	2089,1
566,508	2107,53
566,703	2361,48
566,897	2197,64
567,091	2396,29
567,286	2371,72
567,48	2818,18
567,674	2777,22
567,868	2465,93
568,063	2551,94
568,257	2723,97
568,451	2844,8
568,646	2820,22
568,84	2773,12
569,034	2936,96
569,228	2898,05
569,422	3137,66
569,616	2959,49
569,811	3123,32
570,005	3489,91
570,199	3348,6
570,393	3248,25
570,587	3719,28
570,781	3553,4
570,975	3625,08
571,169	3752,05
571,364	4223,08
571,558	4135,02
571,752	4145,26
571,946	4065,39
572,14	4583,52
572,334	4552,81
572,528	4546,66
572,722	4690,02
572,916	4784,23
573,109	4886,62
573,303	4794,47
573,497	4892,77
573,691	5519,45
573,885	5464,15
574,079	5496,92
574,273	5593,17
574,467	5912,66
574,661	5914,7
574,854	6150,22
575,048	6217,8
575,242	6469,7
575,436	6752,32
575,63	6633,54
575,823	6883,39
576,017	7161,92
576,211	7137,34
576,405	7483,45
576,598	7438,39
576,792	8024,11
576,986	8255,53
577,18	8196,14
577,373	8427,56
577,567	8773,67
577,761	8790,05
577,954	9195,55
578,148	9416,73
578,341	9941,01
578,535	10240,01
578,729	10045,46
578,922	10156,05
579,116	10450,96
579,309	10792,97
579,503	11018,24
579,696	11321,34
579,89	12060,66
580,083	11900,92
580,277	12111,86
580,47	12118
580,664	12965,86
580,857	12859,37
581,051	13258,72
581,244	13576,16
581,437	14061,52
581,631	14262,23
581,824	14407,63
582,018	14952,39
582,211	15351,74
582,404	15742,91
582,598	15976,37
582,791	16275,38
582,984	16719,79
583,178	17151,91
583,371	17551,26
583,564	17745,82
583,757	18501,52
583,951	18974,6
584,144	19124,1
584,337	19347,33
584,53	19863,42
584,723	20275,06
584,917	20905,84
585,11	21294,95
585,303	22259,54
585,496	22505,3
585,689	22943,56
585,882	23125,83
586,075	23664,45
586,268	24145,72
586,462	24522,55
586,655	25235,24
586,848	26494,74
587,041	26476,31
587,234	26791,7
587,427	27385,61
587,62	28251,9
587,813	28581,62
588,006	29470,44
588,199	29572,84
588,392	30871,25
588,585	31262,41
588,777	31915,72
588,97	31850,18
589,163	33613,48
589,356	33734,31
589,549	34293,41
589,742	34922,13
589,935	35653,26
590,128	36509,31
590,32	37492,33
590,513	37457,52
590,706	39071,32
590,899	38833,75
591,092	39566,93
591,284	40199,75
591,477	41057,85
591,67	41725,49
591,863	42378,79
592,055	42583,58
592,248	43742,74
592,441	44500,48
592,633	45035
592,826	44740,1
593,019	45903,34
593,211	46224,87
593,404	46409,19
593,596	46681,57
593,789	48037,33
593,982	48256,46
594,174	48330,19
594,367	48696,77
594,559	49780,15
594,752	49018,3
594,944	49120,7
595,137	49837,49
595,329	50277,8
595,522	50390,44
595,714	50623,91
595,907	50537,9
596,099	50144,69
596,292	50197,93
596,484	50636,2
596,676	49089,98
596,869	49888,69
597,061	49747,38
597,253	48799,17
597,446	48262,6
597,638	48940,48
597,83	47322,58
598,023	46824,93
598,215	46253,54
598,407	45710,83
598,6	44977,66
598,792	44883,45
598,984	43689,49
599,176	42765,85
599,369	42595,87
599,561	41715,25
599,753	39824,97
599,945	39992,9
600,137	38610,53
600,329	37854,83
600,522	36269,7
600,714	36042,37
600,906	34647,71
601,098	33994,4
601,29	32892,6
601,482	32120,51
601,674	31436,49
601,866	30301,92
602,058	28960,5
602,25	28417,79
602,442	27750,15
602,634	26750,74
602,826	25585,44
603,018	24854,32
603,21	24452,92
603,402	23670,59
603,594	22368,09
603,786	22290,26
603,978	21692,26
604,17	20551,54
604,362	19871,61
604,554	19715,97
604,745	18976,65
604,937	18163,61
605,129	17895,32
605,321	16918,44
605,513	16508,85
605,704	16222,13
605,896	15466,43
606,088	15163,33
606,28	14694,35
606,471	14239,7
606,663	13752,28
606,855	13107,17
607,047	13246,43
607,238	12492,78
607,43	12099,57
607,622	12523,5
607,813	11634,68
608,005	11165,7
608,197	10917,89
608,388	10881,03
608,58	10043,41
608,771	9877,52
608,963	9404,44
609,154	9412,64
609,346	9291,8
609,537	8857,64
609,729	8374,31
609,921	8503,34
610,112	8067,12
610,303	7635
610,495	7319,61
610,686	7612,47
610,878	7000,13
611,069	6770,76
611,261	6590,53
611,452	6379,59
611,643	6199,37
611,835	5859,41
612,026	5701,72
612,217	5771,35
612,409	5466,2
612,6	5163,1
612,791	5083,23
612,983	5111,9
613,174	5142,62
613,365	4636,77
613,557	4427,88
613,748	4364,39
613,939	4573,28
614,13	4046,96
614,321	3842,16
614,513	4196,46
614,704	3864,69
614,895	3528,82
615,086	3297,4
615,277	3354,74
615,468	3272,82
615,659	3160,19
615,851	2939,01
616,042	3094,65
616,233	2793,6
616,424	2605,19
616,615	2785,41
616,806	2660,48
616,997	2254,98
617,188	2257,03
617,379	2314,38
617,57	2560,13
617,761	2465,93
617,952	2201,74
618,143	2279,56
618,334	2017,42
618,524	2054,28
618,715	1863,82
618,906	1759,38
619,097	1943,69
619,288	1603,73
619,479	1863,82
619,67	1591,44
619,86	1515,67
620,051	1630,35
620,242	1542,29
620,433	1263,77
620,624	1710,22
620,814	1417,37
621,005	1382,55
621,196	1392,79
621,386	1589,39
621,577	1450,13
621,768	1310,87
621,958	1089,69
622,149	1208,47
622,34	1302,68
622,53	1079,45
622,721	1110,17
622,912	1403,03
623,102	1300,63
623,293	944,28
623,483	934,04
623,674	1343,64
623,864	1015,96
624,055	786,59
624,245	952,48
624,436	893,09
624,626	874,65
624,817	837,79
625,007	774,3
625,198	731,3
625,388	888,99
625,579	774,3
625,769	759,97
625,959	1022,11
626,15	923,8
626,34	661,66
626,531	735,39
626,721	940,19
626,911	651,42
627,101	598,18
627,292	587,94
627,482	657,57
627,672	708,77
627,863	473,25
628,053	725,15
628,243	782,49
628,433	379,04
628,623	405,67
628,814	422,05
629,004	700,58
629,194	475,3
629,384	538,79
629,574	393,38
629,764	735,39
629,955	667,81
630,145	608,42
630,335	424,1
630,525	350,37
630,715	608,42
630,905	514,21
631,095	233,64
631,285	456,87
631,475	428,2
631,665	622,75
631,855	303,27
632,045	399,52
632,235	481,44
632,425	323,75
632,615	311,46
632,805	567,46
632,994	389,28
633,184	551,07
633,374	331,94
633,564	356,52
633,754	442,53
633,944	399,52
634,133	237,74
634,323	549,03
634,513	409,76
634,703	352,42
634,893	288,93
635,082	553,12
635,272	411,81
635,462	233,64
635,651	303,27
635,841	389,28
636,031	237,74
636,221	172,2
636,41	161,96
636,6	311,46
636,789	430,24
636,979	227,5
637,169	254,12
637,358	114,86
637,548	411,81
637,737	215,21
637,927	172,2
638,116	372,9
638,306	293,03
638,495	219,3
638,685	280,74
638,874	237,74
639,064	297,13
639,253	221,35
639,443	133,29
639,632	229,54
639,822	184,49
640,011	311,46
640,2	217,26
640,39	508,07
640,579	333,99
640,768	182,44
640,958	192,68
641,147	202,92
641,336	258,21
641,526	143,53
641,715	237,74
641,904	397,48
642,093	24,75
642,283	352,42
642,472	202,92
642,661	121
642,85	467,11
643,039	80,04
643,228	299,17
643,418	286,89
643,607	442,53
643,796	311,46
643,985	104,62
644,174	340,13
644,363	385,19
644,552	200,87
644,741	-32,6
644,93	18,6
645,119	348,33
645,308	57,51
645,497	174,25
645,686	342,18
645,875	258,21
646,064	51,37
646,253	245,93
646,442	551,07
646,631	75,95
646,82	192,68
647,009	45,23
647,198	278,69
647,387	256,17
647,575	73,9
647,764	313,51
647,953	278,69
648,142	288,93
648,331	75,95
648,519	90,28
648,708	389,28
648,897	229,54
649,086	137,38
649,274	43,18
649,463	112,81
649,652	602,27
649,84	145,58
650,029	200,87
650,218	225,45
650,406	352,42
650,595	90,28
650,784	184,49
650,972	293,03
651,161	282,79
651,349	65,71
651,538	231,59
651,726	288,93
651,915	348,33
652,104	241,83
652,292	102,57
652,481	385,19
652,669	569,51
652,857	-10,07
653,046	149,67
653,234	172,2
653,423	428,2
653,611	106,67
653,8	125,1
653,988	383,14
654,176	174,25
654,365	135,34
654,553	184,49
654,741	331,94
654,93	106,67
655,118	100,52
655,306	94,38
655,494	51,37
655,683	192,68
655,871	-122,71
656,059	157,86
656,247	75,95
656,436	164,01
656,624	139,43
656,812	26,79
657	186,54
657,188	458,92
657,376	59,56
657,564	241,83
657,753	45,23
657,941	45,23
658,129	127,14
658,317	180,39
658,505	94,38
658,693	110,76
658,881	-67,41
659,069	147,62
659,257	209,06
659,445	262,31
659,633	164,01
659,821	12,46
660,009	184,49
660,197	69,8
660,384	102,57
660,572	86,19
660,76	194,73
660,948	211,11
661,136	4,27
661,324	39,08
661,512	436,39
661,699	65,71
661,887	164,01
662,075	241,83
662,263	166,06
662,451	202,92
662,638	184,49
662,826	-5,97
663,014	460,96
663,201	331,94
663,389	121
663,577	135,34
663,764	307,37
663,952	100,52
664,14	45,23
664,327	102,57
664,515	344,23
664,702	223,4
664,89	30,89
665,078	65,71
665,265	159,91
665,453	215,21
665,64	16,55
665,828	18,6
666,015	204,97
666,203	225,45
666,39	67,75
666,578	96,43
666,765	104,62
666,952	483,49
667,14	303,27
667,327	-24,4
667,515	161,96
667,702	282,79
667,889	90,28
668,077	-18,26
668,264	436,39
668,451	303,27
668,638	77,99
668,826	110,76
669,013	123,05
669,2	268,45
669,388	57,51
669,575	170,15
669,762	-91,99
669,949	379,04
670,136	4171,88
670,323	94,38
670,511	174,25
670,698	139,43
670,885	53,42
671,072	215,21
671,259	209,06
671,446	196,78
671,633	-18,26
671,82	-38,74
672,007	26,79
672,194	254,12
672,381	-48,98
672,568	4,27
672,755	268,45
672,942	241,83
673,129	-5,97
673,316	-5,97
673,503	235,69
673,69	213,16
673,877	65,71
674,064	112,81
674,251	229,54
674,437	278,69
674,624	180,39
674,811	116,9
674,998	65,71
675,185	219,3
675,372	198,82
675,558	61,61
675,745	266,41
675,932	288,93
676,119	-28,5
676,305	88,23
676,492	231,59
676,679	202,92
676,865	45,23
677,052	168,1
677,239	170,15
677,425	178,34
677,612	37,03
677,798	88,23
677,985	362,66
678,172	268,45
678,358	133,29
678,545	-28,5
678,731	180,39
678,918	190,63
679,104	-14,17
679,291	194,73
679,477	131,24
679,664	55,47
679,85	-14,17
680,036	96,43
680,223	-20,31
680,409	157,86
680,596	-24,4
680,782	116,9
680,968	385,19
681,155	155,82
681,341	100,52
681,527	37,03
681,714	112,81
681,9	100,52
682,086	-1,88
682,272	-59,22
682,459	-26,45
682,645	391,33
682,831	37,03
683,017	137,38
683,204	463,01
683,39	219,3
683,576	106,67
683,762	-32,6
683,948	176,3
684,134	-67,41
684,32	73,9
684,506	151,72
684,693	409,76
684,879	-34,64
685,065	34,99
685,251	-178
685,437	32,94
685,623	225,45
685,809	88,23
685,995	-67,41
686,181	190,63
686,366	141,48
686,552	30,89
686,738	-98,13
686,924	198,82
687,11	55,47
687,296	63,66
687,482	28,84
687,668	92,33
687,853	4,27
688,039	67,75
688,225	6,31
688,411	164,01
688,597	469,16
688,782	90,28
688,968	-26,45
689,154	164,01
689,34	506,02
689,525	161,96
689,711	-94,04
689,897	473,25
690,082	67,75
690,268	63,66
690,454	-98,13
690,639	192,68
690,825	274,6
691,01	65,71
691,196	-32,6
691,381	73,9
691,567	75,95
691,753	34,99
691,938	-163,67
692,124	10,41
692,309	71,85
692,494	-83,8
692,68	-98,13
692,865	94,38
693,051	221,35
693,236	41,13
693,422	45,23
693,607	32,94
693,792	250,02
693,978	-18,26
694,163	16,55
694,348	184,49
694,534	288,93
694,719	8,36
694,904	-40,79
695,089	209,06
695,275	98,47
695,46	-77,65
695,645	-10,07
695,83	139,43
696,016	73,9
696,201	-65,36
696,386	-44,88
696,571	213,16
696,756	71,85
696,941	59,56
697,126	-85,84
697,311	94,38
697,497	207,02
697,682	6,31
697,867	73,9
698,052	270,5
698,237	368,81
698,422	-16,21
698,607	-3,93
698,792	194,73
698,977	190,63
699,162	114,86
699,347	41,13
699,531	213,16
699,716	217,26
699,901	0,17
700,086	-18,26
700,271	168,1
700,456	381,09
700,641	22,7
700,825	-71,51
701,01	422,05
701,195	116,9
701,38	61,61
701,565	12,46
701,749	92,33
701,934	59,56
702,119	14,51
702,303	-104,28
702,488	221,35
702,673	368,81
702,857	67,75
703,042	-108,37
703,227	340,13
703,411	141,48
703,596	139,43
703,78	241,83
703,965	104,62
704,15	47,27
704,334	71,85
704,519	-132,95
704,703	59,56
704,888	123,05
705,072	-28,5
705,257	-30,55
705,441	6,31
705,625	512,16
705,81	100,52
705,994	-141,14
706,179	200,87
706,363	131,24
706,547	-63,32
706,732	153,77
706,916	219,3
707,1	157,86
707,285	28,84
707,469	49,32
707,653	229,54
707,837	108,71
708,022	90,28
708,206	88,23
708,39	32,94
708,574	182,44
708,759	16,55
708,943	-67,41
709,127	272,55
709,311	233,64
709,495	-18,26
709,679	-51,03
709,863	233,64
710,047	284,84
710,231	123,05
710,415	-198,48
710,6	297,13
710,784	-36,69
710,968	161,96
711,152	77,99
711,336	104,62
711,519	379,04
711,703	-48,98
711,887	135,34
712,071	59,56
712,255	65,71
712,439	241,83
712,623	16,55
712,807	192,68
712,991	254,12
713,174	-5,97
713,358	67,75
713,542	196,78
713,726	149,67
713,91	98,47
714,093	4,27
714,277	196,78
714,461	252,07
714,645	-14,17
714,828	-91,99
715,012	137,38
715,196	14,51
715,379	73,9
715,563	-42,84
715,747	184,49
715,93	161,96
716,114	-61,27
716,297	-130,9
716,481	4,27
716,664	215,21
716,848	-75,6
717,031	8,36
717,215	-32,6
717,398	202,92
717,582	-114,52
717,765	88,23
717,949	-34,64
718,132	90,28
718,316	-149,33
718,499	-200,53
718,682	278,69
718,866	82,09
719,049	-1,88
719,233	-167,76
719,416	262,31
719,599	299,17
719,782	-139,09
719,966	-175,95
720,149	-16,21
720,332	272,55
720,515	-124,76
720,699	-48,98
720,882	159,91
721,065	131,24
721,248	65,71
721,431	-120,66
721,615	-1,88
721,798	352,42
721,981	77,99
722,164	-153,43
722,347	262,31
722,53	331,94
722,713	-135
722,896	-34,64
723,079	100,52
723,262	145,58
723,445	86,19
723,628	-192,34
723,811	82,09
723,994	108,71
724,177	-59,22
724,36	-32,6
724,543	96,43
724,726	-24,4
724,909	-1,88
725,091	92,33
725,274	32,94
725,457	41,13
725,64	-96,08
725,823	-89,94
726,006	-3,93
726,188	129,19
726,371	209,06
726,554	-65,36
726,737	112,81
726,919	100,52
727,102	45,23
727,285	-57,17
727,467	110,76
727,65	166,06
727,833	-153,43
728,015	-26,45
728,198	-40,79
728,38	131,24
728,563	-114,52
728,746	-44,88
728,928	8,36
729,111	30,89
729,293	10,41
729,476	112,81
729,658	90,28
729,841	6,31
730,023	57,51
730,205	-120,66
730,388	88,23
730,57	266,41
730,753	65,71
730,935	-53,08
731,117	340,13
731,3	-55,12
731,482	24,75
731,664	-53,08
731,847	123,05
732,029	147,62
732,211	-57,17
732,394	-212,82
732,576	86,19
732,758	346,28
732,94	20,65
733,122	-44,88
733,305	458,92
733,487	22,7
733,669	114,86
733,851	-141,14
734,033	286,89
734,215	161,96
734,397	-18,26
734,58	-34,64
734,762	125,1
734,944	182,44
735,126	-106,32
735,308	47,27
735,49	96,43
735,672	8,36
735,854	-57,17
736,036	32,94
736,218	424,1
736,399	211,11
736,581	61,61
736,763	82,09
736,945	374,95
737,127	43,18
737,309	47,27
737,491	24,75
737,672	94,38
737,854	98,47
738,036	96,43
738,218	71,85
738,4	-180,05
738,581	235,69
738,763	-75,6
738,945	-83,8
739,127	73,9
739,308	135,34
739,49	94,38
739,672	-65,36
739,853	153,77
740,035	80,04
740,216	-51,03
740,398	-20,31
740,58	188,58
740,761	135,34
740,943	34,99
741,124	-79,7
741,306	139,43
741,487	161,96
741,669	-8,02
741,85	-79,7
742,032	188,58
742,213	47,27
742,394	-40,79
742,576	2,22
742,757	358,57
742,939	121
743,12	-139,09
743,301	-61,27
743,483	90,28
743,664	-48,98
743,845	59,56
744,027	-85,84
744,208	71,85
744,389	125,1
744,57	-180,05
744,752	59,56
744,933	147,62
745,114	104,62
745,295	-71,51
745,476	71,85
745,657	-3,93
745,839	106,67
746,02	2,22
746,201	86,19
746,382	286,89
746,563	389,28
746,744	-42,84
746,925	-98,13
747,106	110,76
747,287	102,57
747,468	-1,88
747,649	116,9
747,83	155,82
748,011	192,68
748,192	-14,17
748,373	-67,41
748,554	-18,26
748,735	108,71
748,915	-137,04
749,096	-124,76
749,277	131,24
749,458	274,6
749,639	0,17
749,82	30,89
750	-28,5
750,181	262,31
750,362	-73,56
750,543	157,86
750,723	180,39
750,904	88,23
751,085	-65,36
751,265	-51,03
751,446	90,28
751,627	108,71
751,807	-16,21
751,988	14,51
752,169	170,15
752,349	114,86
752,53	-32,6
752,71	-51,03
752,891	364,71
753,071	184,49
753,252	-128,85
753,432	16,55
753,613	172,2
753,793	235,69
753,974	-91,99
754,154	-18,26
754,334	194,73
754,515	-1,88
754,695	137,38
754,876	10,41
755,056	506,02
755,236	80,04
755,417	-8,02
755,597	100,52
755,777	114,86
755,957	235,69
756,138	12,46
756,318	-32,6
756,498	86,19
756,678	104,62
756,859	170,15
757,039	-34,64
757,219	274,6
757,399	153,77
757,579	20,65
757,759	-126,8
757,939	-137,04
758,119	307,37
758,3	-24,4
758,48	2,22
758,66	45,23
758,84	-83,8
759,02	14,51
759,2	-233,3
759,38	18,6
759,56	245,93
759,74	-139,09
759,919	-159,57
760,099	227,5
760,279	211,11
760,459	49,32
760,639	-65,36
760,819	174,25
760,999	-98,13
761,178	-96,08
761,358	-57,17
761,538	-36,69
761,718	39,08
761,898	-233,3
762,077	20,65
762,257	151,72
762,437	98,47
762,616	-102,23
762,796	-120,66
762,976	127,14
763,155	-18,26
763,335	-112,47
763,515	-122,71
763,694	268,45
763,874	-40,79
764,053	6,31
764,233	-71,51
764,413	20,65
764,592	141,48
764,772	53,42
764,951	-40,79
765,131	63,66
765,31	161,96
765,489	49,32
765,669	-139,09
765,848	211,11
766,028	45,23
766,207	-94,04
766,386	-55,12
766,566	-16,21
766,745	65,71
766,924	61,61
767,104	10,41
767,283	-83,8
767,462	243,88
767,642	-51,03
767,821	-75,6
768	-155,47
768,179	143,53
768,358	-8,02
768,538	-12,12
768,717	88,23
768,896	-26,45
769,075	30,89
769,254	-157,52
769,433	159,91
769,612	172,2
769,791	-122,71
769,97	-169,81
770,149	166,06
770,328	-83,8
770,507	-48,98
770,686	-200,53
770,865	239,78
771,044	84,14
771,223	-218,96
771,402	-77,65
771,581	139,43
771,76	-65,36
771,939	51,37
772,118	-71,51
772,297	39,08
772,475	155,82
772,654	90,28
772,833	-53,08
773,012	434,34
773,191	252,07
773,369	86,19
773,548	-8,02
773,727	-128,85
773,906	413,86
774,084	18,6
774,263	-128,85
774,442	139,43
774,62	80,04
774,799	-145,24
774,977	43,18
775,156	327,85
775,335	225,45
775,513	-42,84
775,692	-141,14
775,87	606,37
776,049	90,28
776,227	-130,9
776,406	-46,93
776,584	34,99
776,763	235,69
776,941	-229,2
777,119	-79,7
777,298	-98,13
777,476	223,4
777,655	-112,47
777,833	-100,18
778,011	290,98
778,19	180,39
778,368	-57,17
778,546	-100,18
778,725	274,6
778,903	4,27
779,081	-100,18
779,259	-147,28
779,437	116,9
779,616	114,86
779,794	-79,7
779,972	-79,7
780,15	135,34
780,328	90,28
780,506	-42,84
780,685	-81,75
780,863	-20,31
781,041	-128,85
781,219	-28,5
781,397	-24,4
781,575	75,95
781,753	57,51
781,931	-132,95
782,109	-102,23
782,287	14,51
782,465	151,72
782,643	-34,64
782,82	-34,64
782,998	340,13
783,176	164,01
783,354	-169,81
783,532	-42,84
783,71	88,23
783,888	118,95
784,065	-141,14
784,243	-102,23
784,421	86,19
784,599	149,67
784,776	-51,03
784,954	-165,71
785,132	137,38
785,31	-81,75
785,487	-214,87
785,665	-79,7
785,842	129,19
786,02	524,45
786,198	-135
786,375	-186,19
786,553	114,86
786,73	104,62
786,908	-208,72
787,085	-87,89
787,263	61,61
787,44	20,65
787,618	-61,27
787,795	-151,38
787,973	-122,71
788,15	106,67
788,328	-61,27
788,505	8,36
788,682	47,27
788,86	-8,02
789,037	28,84
789,215	-108,37
789,392	37,03
789,569	336,04
789,746	-77,65
789,924	-106,32
790,101	268,45
790,278	245,93
790,455	-65,36
790,633	-102,23
790,81	141,48
790,987	-44,88
791,164	-42,84
791,341	-135
791,518	-85,84
791,695	102,57
791,873	-83,8
792,05	-161,62
792,227	6,31
792,404	53,42
792,581	-69,46
792,758	-55,12
792,935	-55,12
793,112	88,23
793,289	-153,43
793,466	-32,6
793,643	-10,07
793,82	-85,84
793,996	-81,75
794,173	-53,08
794,35	-200,53
794,527	256,17
794,704	32,94
794,881	-151,38
795,057	110,76
795,234	-124,76
795,411	-65,36
795,588	-139,09
795,765	-116,56
795,941	96,43
796,118	-161,62
796,295	-65,36
796,471	69,8
796,648	-118,61
796,825	-8,02
797,001	-96,08
797,178	250,02
797,354	274,6
797,531	-141,14
797,708	-157,52
797,884	268,45
798,061	-77,65
798,237	-243,54
798,414	-229,2
798,59	176,3
798,767	135,34
798,943	-61,27
799,119	-91,99
799,296	63,66
799,472	92,33
799,649	-153,43
799,825	-59,22
800,001	-67,41
800,178	-126,8
800,354	-69,46
800,53	-126,8
800,707	-59,22
800,883	-51,03
801,059	-122,71
801,235	151,72
801,411	-61,27
801,588	-75,6
801,764	45,23
801,94	-132,95
802,116	-26,45
802,292	-81,75
802,468	-65,36
802,645	-55,12
802,821	161,96
802,997	155,82
803,173	-118,61
803,349	-192,34
803,525	-73,56
803,701	49,32
803,877	-124,76
804,053	-100,18
804,229	14,51
804,405	254,12
804,581	-110,42
804,756	-167,76
804,932	-100,18
805,108	71,85
805,284	-182,1
805,46	-120,66
805,636	108,71
805,812	-34,64
805,987	-175,95
806,163	-85,84
806,339	2758,78
806,515	-81,75
806,69	-171,86
806,866	-114,52
807,042	221,35
807,217	55,47
807,393	-48,98
807,569	-286,54
807,744	325,8
807,92	393,38
808,096	-182,1
808,271	-120,66
808,447	67,75
808,622	-30,55
808,798	-120,66
808,973	-145,24
809,149	145,58
809,324	127,14
809,5	-132,95
809,675	-145,24
809,851	-1,88
810,026	-3,93
810,201	-59,22
810,377	-124,76
810,552	-3,93
810,728	168,1
810,903	-1,88
811,078	-48,98
811,253	161,96
811,429	-190,29
811,604	-276,31
811,779	-104,28
811,955	92,33
812,13	-12,12
812,305	-151,38
812,48	-165,71
812,655	254,12
812,83	331,94
813,006	-204,63
813,181	-145,24
813,356	-81,75
813,531	-48,98
813,706	-124,76
813,881	-194,39
814,056	-55,12
814,231	254,12
814,406	-143,19
814,581	-253,78
814,756	100,52
814,931	92,33
815,106	-104,28
815,281	-130,9
815,456	176,3
815,631	80,04
815,805	-94,04
815,98	-194,39
816,155	41,13
816,33	0,17
816,505	-218,96
816,68	-106,32
816,854	-139,09
817,029	-53,08
817,204	-178
817,379	-126,8
817,553	92,33
817,728	-24,4
817,903	-182,1
818,077	-132,95
818,252	-28,5
818,427	192,68
818,601	-143,19
818,776	-253,78
818,95	8,36
819,125	204,97
819,299	-98,13
819,474	-165,71
819,648	-12,12
819,823	268,45
819,997	-20,31
820,172	-251,73
820,346	131,24
820,521	57,51
820,695	-171,86
820,87	-122,71
821,044	-16,21
821,218	43,18
821,393	51,37
821,567	-245,59
821,741	-20,31
821,916	4,27
822,09	-44,88
822,264	-153,43
822,438	-110,42
822,613	8,36
822,787	-130,9
822,961	-102,23
823,135	159,91
823,309	6,31
823,483	-221,01
823,658	-67,41
823,832	213,16
824,006	-210,77
824,18	-114,52
824,354	-171,86
824,528	-1,88
824,702	229,54
824,876	-194,39
825,05	-100,18
825,224	139,43
825,398	73,9
825,572	-182,1
825,746	-212,82
825,92	340,13
826,093	49,32
826,267	-81,75
826,441	-167,76
826,615	293,03
826,789	204,97
826,963	-104,28
827,136	-96,08
827,31	28,84
827,484	-147,28
827,658	-188,24
827,831	-180,05
828,005	43,18
828,179	-268,11
828,353	-147,28
828,526	-89,94
828,7	22,7
828,873	-130,9
829,047	-175,95
829,221	-212,82
829,394	-24,4
829,568	73,9
829,741	-221,01
829,915	-251,73
830,088	209,06
830,262	344,23
830,435	-186,19
830,609	-128,85
830,782	53,42
830,956	104,62
831,129	-55,12
831,302	-151,38
831,476	4,27
831,649	-83,8
831,822	-85,84
831,996	-65,36
832,169	247,97
832,342	-204,63
832,516	-120,66
832,689	-272,21
832,862	143,53
833,035	254,12
833,209	75,95
833,382	-98,13
833,555	-184,15
833,728	-173,91
833,901	-194,39
834,074	-102,23
834,247	0,17
834,42	32,94
834,594	-188,24
834,767	-44,88
834,94	254,12
835,113	221,35
835,286	-18,26
835,459	-180,05
835,632	82,09
835,805	-24,4
835,977	-28,5
836,15	10,41
836,323	-28,5
836,496	207,02
836,669	-67,41
836,842	-120,66
837,015	323,75
837,188	98,47
837,36	-71,51
837,533	-40,79
837,706	121
837,879	250,02
838,051	-286,54
838,224	-65,36
838,397	49,32
838,569	143,53
838,742	-218,96
838,915	-186,19
839,087	225,45
839,26	221,35
839,433	-120,66
839,605	45,23
839,778	-259,92
839,95	180,39
840,123	-85,84
840,295	-51,03
840,468	-159,57
840,64	82,09
840,813	-87,89
840,985	-124,76
841,158	77,99
841,33	24,75
841,502	-227,15
841,675	-32,6
841,847	209,06
842,019	118,95
842,192	-214,87
842,364	-141,14
842,536	0,17
842,709	26,79
842,881	-147,28
843,053	-102,23
843,225	-14,17
843,398	219,3
843,57	-141,14
843,742	-202,58
843,914	67,75
844,086	247,97
844,258	-216,91
844,43	-173,91
844,602	340,13
844,775	-5,97
844,947	-180,05
845,119	-180,05
845,291	321,7
845,463	250,02
845,635	-198,48
845,807	-135
845,979	166,06
846,15	121
846,322	-102,23
846,494	-163,67
846,666	-126,8
846,838	143,53
847,01	-192,34
847,182	-87,89
847,354	106,67
847,525	166,06
847,697	-173,91
847,869	-235,35
848,041	69,8
848,212	243,88
848,384	-292,69
848,556	-91,99
848,727	108,71
848,899	-147,28
849,071	-106,32
849,242	-75,6
849,414	188,58
849,585	149,67
849,757	-126,8
849,929	-46,93
850,1	-51,03
850,272	282,79
850,443	-130,9
850,615	41,13
850,786	121
850,958	-30,55
851,129	-73,56
851,3	-85,84
851,472	139,43
851,643	-30,55
851,815	-10,07
851,986	-10,07
852,157	186,54
852,329	514,21
852,5	-188,24
852,671	-16,21
852,842	121
853,014	59,56
853,185	-126,8
853,356	-116,56
853,527	139,43
853,698	127,14
853,87	-5,97
854,041	75,95
854,212	86,19
854,383	96,43
854,554	-208,72
854,725	-108,37
854,896	32,94
855,067	-1,88
855,238	-145,24
855,409	-104,28
855,58	28,84
855,751	303,27
855,922	-83,8
856,093	528,55
856,264	-147,28
856,435	4,27
856,606	-196,43
856,777	-96,08
856,948	-30,55
857,118	22,7
857,289	-118,61
857,46	104,62
857,631	141,48
857,802	45,23
857,972	-94,04
858,143	-22,36
858,314	-85,84
858,484	-167,76
858,655	-208,72
858,826	-91,99
858,996	86,19
859,167	209,06
859,338	-175,95
859,508	-130,9
859,679	53,42
859,849	-18,26
860,02	-241,49
860,19	-79,7
860,361	250,02
860,531	-79,7
860,702	-40,79
860,872	47,27
861,043	-87,89
861,213	192,68
861,384	-79,7
861,554	-104,28
861,724	-81,75
861,895	57,51
862,065	88,23
862,235	-106,32
862,406	114,86
862,576	-87,89
862,746	-124,76
862,916	-100,18
863,087	338,09
863,257	106,67
863,427	-178
863,597	-71,51
863,767	219,3
863,937	-188,24
864,108	-91,99
864,278	-16,21
864,448	311,46
864,618	202,92
864,788	-221,01
864,958	-71,51
865,128	88,23
865,298	55,47
865,468	-128,85
865,638	-202,58
865,808	123,05
865,978	417,96
866,148	-253,78
866,318	-139,09
866,487	243,88
866,657	80,04
866,827	-26,45
866,997	-247,63
867,167	229,54
867,337	233,64
867,506	-65,36
867,676	-143,19
867,846	-73,56
868,016	82,09
868,185	-270,16
868,355	-28,5
868,525	153,77
868,694	55,47
868,864	-98,13
869,034	20,65
869,203	129,19
869,373	143,53
869,542	-89,94
869,712	-98,13
869,881	147,62
870,051	39,08
870,22	-132,95
870,39	-114,52
870,559	-1,88
870,729	-288,59
870,898	-91,99
871,068	-151,38
871,237	16,55
871,406	-18,26
871,576	-143,19
871,745	-71,51
871,914	34,99
872,084	2,22
872,253	-100,18
872,422	-216,91
872,591	159,91
872,761	-198,48
872,93	96,43
873,099	-175,95
873,268	88,23
873,437	-98,13
873,607	-155,47
873,776	-55,12
873,945	71,85
874,114	-67,41
874,283	-137,04
874,452	59,56
874,621	254,12
874,79	209,06
874,959	-132,95
875,128	-114,52
875,297	61,61
875,466	229,54
875,635	-94,04
875,804	-110,42
875,973	-87,89
876,142	213,16
876,31	-155,47
876,479	-132,95
876,648	84,14
876,817	-98,13
876,986	-147,28
877,155	22,7
877,323	-61,27
877,492	250,02
877,661	-57,17
877,829	-18,26
877,998	-36,69
878,167	147,62
878,335	-186,19
878,504	-165,71
878,673	-102,23
878,841	-163,67
879,01	-135
879,178	-139,09
879,347	67,75
879,515	100,52
879,684	57,51
879,852	-184,15
880,021	-1,88
880,189	96,43
880,358	-153,43
880,526	225,45
880,695	-130,9
880,863	194,73
881,031	-159,57
881,2	-196,43
881,368	-67,41
881,536	366,76
881,705	-182,1
881,873	-102,23
882,041	172,2
882,21	32,94
882,378	-98,13
882,546	-87,89
882,714	65,71
882,882	-59,22
883,05	-91,99
883,219	-118,61
883,387	-20,31
883,555	30,89
883,723	-227,15
883,891	-135
884,059	-157,52
884,227	69,8
884,395	-198,48
884,563	-91,99
884,731	-28,5
884,899	293,03
885,067	-157,52
885,235	-165,71
885,403	196,78
885,571	178,34
885,739	-280,4
