Data from LED  warmweiss 2_USB4F035431__0__12-57-29-549.txt Node

Date: Tue Feb 02 12:57:29 CET 2021
User: Praktikum
Spectrometer: USB4F03543
Trigger mode: 4
Integration Time (sec): 4,000000E-1
Scans to average: 1
Electric dark correction enabled: true
Nonlinearity correction enabled: false
Boxcar width: 0
XAxis mode: Wavelengths
Number of Pixels in Spectrum: 3648
>>>>>Begin Spectral Data<<<<<
179,969	-653,64
180,181	-653,64
180,394	-653,64
180,606	-600,4
180,819	-627,02
181,031	251,56
181,243	384,68
181,456	-229,71
181,668	-149,84
181,88	194,22
182,093	36,52
182,305	-250,19
182,518	-258,39
182,73	296,61
182,942	181,93
183,155	-262,48
183,367	-194,9
183,579	276,13
183,791	263,85
184,004	-190,8
184,216	-166,23
184,428	50,86
184,641	73,39
184,853	-252,24
185,065	-219,47
185,277	179,88
185,49	233,13
185,702	-264,53
185,914	-180,56
186,126	5,8
186,338	190,12
186,551	-305,49
186,763	-162,13
186,975	-76,12
187,187	132,78
187,399	-297,3
187,612	-143,7
187,824	9,9
188,036	167,59
188,248	-86,36
188,46	-209,23
188,672	222,89
188,885	26,28
189,097	-162,13
189,309	-235,86
189,521	120,49
189,733	175,78
189,945	-192,85
190,157	-96,6
190,369	24,23
190,581	-41,3
190,794	-125,27
191,006	-198,99
191,218	110,25
191,43	153,26
191,642	-233,81
191,854	-170,32
192,066	276,13
192,278	120,49
192,49	-362,83
192,702	-160,08
192,914	163,5
193,126	83,63
193,338	-211,28
193,55	-153,94
193,762	286,37
193,974	-117,08
194,186	-264,53
194,398	-186,71
194,61	116,39
194,822	292,52
195,034	-211,28
195,246	32,43
195,457	120,49
195,669	396,96
195,881	-162,13
196,093	-287,06
196,305	106,15
196,517	-182,61
196,729	-139,6
196,941	-192,85
197,153	415,4
197,365	356,01
197,576	-285,01
197,788	-192,85
198	298,66
198,212	439,97
198,424	-174,42
198,636	-192,85
198,847	-88,4
199,059	122,54
199,271	-295,25
199,483	-217,43
199,695	95,91
199,906	253,61
200,118	-268,63
200,33	-112,98
200,542	851,61
200,753	-29,01
200,965	-248,15
201,177	-176,47
201,389	57
201,6	-80,21
201,812	-164,18
202,024	-198,99
202,235	-31,06
202,447	229,03
202,659	-180,56
202,871	-141,65
203,082	112,3
203,294	-14,68
203,506	-225,62
203,717	-207,19
203,929	124,58
204,141	-94,55
204,352	-188,75
204,564	-119,12
204,775	34,47
204,987	351,91
205,199	-176,47
205,41	-86,36
205,622	274,09
205,833	95,91
206,045	-69,97
206,257	-227,67
206,468	-135,51
206,68	-59,73
206,891	-164,18
207,103	-160,08
207,314	-149,84
207,526	202,41
207,737	-256,34
207,949	-86,36
208,16	175,78
208,372	71,34
208,583	-213,33
208,795	-186,71
209,006	95,91
209,218	124,58
209,429	-332,11
209,641	-155,99
209,852	81,58
210,064	231,08
210,275	-192,85
210,487	-98,64
210,698	304,81
210,909	229,03
211,121	-88,4
211,332	-137,56
211,544	198,31
211,755	345,77
211,966	-63,83
212,178	-186,71
212,389	464,55
212,6	67,24
212,812	57
213,023	-174,42
213,234	186,02
213,446	169,64
213,657	-196,95
213,868	-125,27
214,08	458,4
214,291	108,2
214,502	-129,36
214,714	-213,33
214,925	48,81
215,136	20,14
215,347	-82,26
215,559	-239,95
215,77	-158,03
215,981	399,01
216,192	-289,1
216,404	-180,56
216,615	173,74
216,826	263,85
217,037	-231,76
217,249	-252,24
217,46	329,38
217,671	97,96
217,882	-237,91
218,093	-168,27
218,304	159,4
218,516	181,93
218,727	-276,82
218,938	-192,85
219,149	448,16
219,36	134,82
219,571	-272,72
219,782	-182,61
219,993	323,24
220,205	57
220,416	-158,03
220,627	-102,74
220,838	278,18
221,049	540,32
221,26	-235,86
221,471	-229,71
221,682	192,17
221,893	294,57
222,104	-164,18
222,315	-328,02
222,526	-74,07
222,737	102,06
222,948	-317,78
223,159	-190,8
223,37	155,3
223,581	-8,53
223,792	-182,61
224,003	-112,98
224,214	-49,49
224,425	188,07
224,636	-276,82
224,847	-121,17
225,058	126,63
225,269	132,78
225,48	-235,86
225,691	-295,25
225,902	159,4
226,112	22,19
226,323	-244,05
226,534	-235,86
226,745	75,43
226,956	-49,49
227,167	-149,84
227,378	-180,56
227,589	-0,34
227,799	343,72
228,01	-201,04
228,221	-184,66
228,432	124,58
228,643	-55,64
228,853	-112,98
229,064	-174,42
229,275	95,91
229,486	-55,64
229,697	-235,86
229,907	-188,75
230,118	97,96
230,329	7,85
230,54	-203,09
230,75	-115,03
230,961	308,9
231,172	-63,83
231,383	-188,75
231,593	-223,57
231,804	-14,68
232,015	132,78
232,225	-272,72
232,436	-219,47
232,647	231,08
232,857	310,95
233,068	-258,39
233,279	-153,94
233,489	36,52
233,7	67,24
233,91	-186,71
234,121	-112,98
234,332	75,43
234,542	120,49
234,753	-227,67
234,964	-162,13
235,174	7,85
235,385	216,74
235,595	-213,33
235,806	-106,84
236,016	-18,77
236,227	44,71
236,437	-252,24
236,648	-235,86
236,858	97,96
237,069	-20,82
237,279	-151,89
237,49	-149,84
237,7	95,91
237,911	202,41
238,121	-194,9
238,332	-160,08
238,542	153,26
238,753	147,11
238,963	-223,57
239,174	-219,47
239,384	138,92
239,595	24,23
239,805	-217,43
240,015	-285,01
240,226	165,54
240,436	81,58
240,647	-252,24
240,857	-139,6
241,067	171,69
241,278	691,87
241,488	-289,1
241,698	-39,25
241,909	-31,06
242,119	102,06
242,329	-170,32
242,54	-174,42
242,75	9,9
242,96	-80,21
243,171	-158,03
243,381	-227,67
243,591	-104,79
243,801	196,26
244,012	26,28
244,222	-239,95
244,432	-153,94
244,642	42,67
244,853	-188,75
245,063	-201,04
245,273	155,3
245,483	102,06
245,694	-78,16
245,904	-147,8
246,114	169,64
246,324	-43,35
246,534	-108,88
246,744	-192,85
246,955	-219,47
247,165	351,91
247,375	91,82
247,585	-153,94
247,795	95,91
248,005	255,65
248,215	-178,51
248,425	18,09
248,636	581,28
248,846	-16,73
249,056	-184,66
249,266	-192,85
249,476	132,78
249,686	65,19
249,896	-268,63
250,106	-186,71
250,316	42,67
250,526	507,55
250,736	-297,3
250,946	1,71
251,156	313
251,366	16,04
251,576	-110,93
251,786	-88,4
251,996	-33,11
252,206	-47,44
252,416	-235,86
252,626	-270,67
252,836	-55,64
253,046	149,16
253,256	-108,88
253,466	-92,5
253,676	71,34
253,885	155,3
254,095	-198,99
254,305	-112,98
254,515	173,74
254,725	40,62
254,935	-194,9
255,145	-153,94
255,355	280,23
255,564	108,2
255,774	-162,13
255,984	116,39
256,194	110,25
256,404	79,53
256,614	-170,32
256,823	-31,06
257,033	91,82
257,243	263,85
257,453	-235,86
257,662	-149,84
257,872	286,37
258,082	69,29
258,292	-323,92
258,501	-127,32
258,711	667,3
258,921	421,54
259,131	-289,1
259,34	-207,19
259,55	190,12
259,76	-33,11
259,969	-188,75
260,179	-164,18
260,389	97,96
260,598	374,44
260,808	-178,51
261,018	-219,47
261,227	339,62
261,437	36,52
261,647	-108,88
261,856	-239,95
262,066	151,21
262,275	376,48
262,485	-225,62
262,694	-102,74
262,904	93,87
263,114	294,57
263,323	-207,19
263,533	-180,56
263,742	28,33
263,952	126,63
264,161	-235,86
264,371	-203,09
264,58	93,87
264,79	9,9
264,999	-139,6
265,209	-201,04
265,418	151,21
265,628	87,72
265,837	-145,75
266,047	-246,1
266,256	347,81
266,466	-14,68
266,675	-221,52
266,884	-203,09
267,094	155,3
267,303	290,47
267,513	-151,89
267,722	28,33
267,931	157,35
268,141	9,9
268,35	-184,66
268,559	-203,09
268,769	-0,34
268,978	-102,74
269,187	-151,89
269,397	-119,12
269,606	-117,08
269,815	-53,59
270,025	-145,75
270,234	-127,32
270,443	-8,53
270,653	118,44
270,862	-227,67
271,071	-112,98
271,28	3,75
271,49	165,54
271,699	-137,56
271,908	-123,22
272,117	126,63
272,327	57
272,536	-239,95
272,745	-227,67
272,954	5,8
273,163	126,63
273,372	104,11
273,582	-121,17
273,791	67,24
274	-47,44
274,209	-14,68
274,418	52,91
274,627	306,85
274,836	18,09
275,046	5,8
275,255	-59,73
275,464	-6,49
275,673	-22,87
275,882	65,19
276,091	-22,87
276,3	224,94
276,509	24,23
276,718	18,09
276,927	-143,7
277,136	161,45
277,345	71,34
277,554	-14,68
277,763	42,67
277,972	89,77
278,181	120,49
278,39	-35,16
278,599	1,71
278,808	-35,16
279,017	145,06
279,226	-143,7
279,435	20,14
279,644	40,62
279,853	251,56
280,062	304,81
280,271	-98,64
280,48	7,85
280,688	91,82
280,897	-53,59
281,106	-117,08
281,315	-137,56
281,524	91,82
281,733	32,43
281,942	95,91
282,151	124,58
282,359	222,89
282,568	-153,94
282,777	-69,97
282,986	100,01
283,195	126,63
283,403	52,91
283,612	-53,59
283,821	-10,58
284,03	18,09
284,238	36,52
284,447	-63,83
284,656	11,95
284,865	100,01
285,073	-22,87
285,282	-4,44
285,491	44,71
285,699	-104,79
285,908	-61,78
286,117	-84,31
286,325	143,02
286,534	243,37
286,743	-20,82
286,951	57
287,16	140,97
287,369	16,04
287,577	11,95
287,786	-39,25
287,995	54,95
288,203	-63,83
288,412	67,24
288,62	-6,49
288,829	-14,68
289,037	1,71
289,246	-82,26
289,455	-22,87
289,663	75,43
289,872	243,37
290,08	5,8
290,289	40,62
290,497	-110,93
290,706	120,49
290,914	-217,43
291,123	-129,36
291,331	83,63
291,54	267,94
291,748	188,07
291,957	95,91
292,165	67,24
292,373	-133,46
292,582	16,04
292,79	28,33
292,999	155,3
293,207	198,31
293,415	-82,26
293,624	-133,46
293,832	75,43
294,041	196,26
294,249	-33,11
294,457	-115,03
294,666	85,67
294,874	-131,41
295,082	20,14
295,291	42,67
295,499	1,71
295,707	87,72
295,915	61,1
296,124	-6,49
296,332	95,91
296,54	57
296,749	229,03
296,957	-2,39
297,165	155,3
297,373	-41,3
297,581	-72,02
297,79	28,33
297,998	-51,54
298,206	1,71
298,414	44,71
298,622	16,04
298,831	282,28
299,039	-53,59
299,247	104,11
299,455	-6,49
299,663	347,81
299,871	67,24
300,08	-115,03
300,288	-8,53
300,496	71,34
300,704	1,71
300,912	-0,34
301,12	-43,35
301,328	38,57
301,536	54,95
301,744	-137,56
301,952	-59,73
302,16	-72,02
302,368	34,47
302,576	38,57
302,784	87,72
302,992	-149,84
303,2	57
303,408	-41,3
303,616	-45,4
303,824	149,16
304,032	220,84
304,24	235,18
304,448	34,47
304,656	-61,78
304,864	274,09
305,072	163,5
305,28	-57,68
305,488	50,86
305,696	67,24
305,904	-22,87
306,111	-117,08
306,319	-18,77
306,527	183,98
306,735	48,81
306,943	-8,53
307,151	30,38
307,359	-88,4
307,566	81,58
307,774	79,53
307,982	167,59
308,19	-115,03
308,398	-59,73
308,605	-45,4
308,813	-96,6
309,021	-6,49
309,229	73,39
309,436	-170,32
309,644	188,07
309,852	214,7
310,06	140,97
310,267	-82,26
310,475	57
310,683	110,25
310,89	50,86
311,098	75,43
311,306	3,75
311,513	210,6
311,721	-76,12
311,929	-0,34
312,136	63,15
312,344	5,8
312,552	130,73
312,759	-35,16
312,967	274,09
313,174	149,16
313,382	61,1
313,589	48,81
313,797	183,98
314,005	220,84
314,212	7,85
314,42	-96,6
314,627	-0,34
314,835	5,8
315,042	-35,16
315,25	-178,51
315,457	-88,4
315,665	-266,58
315,872	114,34
316,08	9,9
316,287	-26,96
316,495	521,89
316,702	-43,35
316,909	-143,7
317,117	202,41
317,324	128,68
317,532	134,82
317,739	-110,93
317,946	-47,44
318,154	-135,51
318,361	-65,88
318,569	106,15
318,776	-31,06
318,983	-98,64
319,191	108,2
319,398	24,23
319,605	65,19
319,813	243,37
320,02	-225,62
320,227	118,44
320,434	175,78
320,642	13,99
320,849	13,99
321,056	77,48
321,264	73,39
321,471	67,24
321,678	22,19
321,885	-145,75
322,092	224,94
322,3	83,63
322,507	-147,8
322,714	65,19
322,921	32,43
323,128	-125,27
323,336	-67,92
323,543	-16,73
323,75	171,69
323,957	167,59
324,164	145,06
324,371	91,82
324,578	-180,56
324,786	130,73
324,993	-33,11
325,2	42,67
325,407	-201,04
325,614	87,72
325,821	75,43
326,028	226,98
326,235	206,5
326,442	106,15
326,649	-26,96
326,856	61,1
327,063	-98,64
327,27	91,82
327,477	-14,68
327,684	-119,12
327,891	-16,73
328,098	167,59
328,305	93,87
328,512	-74,07
328,719	128,68
328,926	288,42
329,133	-82,26
329,34	286,37
329,546	91,82
329,753	132,78
329,96	-67,92
330,167	9,9
330,374	165,54
330,581	210,6
330,788	-221,52
330,995	65,19
331,201	34,47
331,408	63,15
331,615	-67,92
331,822	-39,25
332,029	-18,77
332,235	130,73
332,442	-145,75
332,649	-16,73
332,856	-162,13
333,062	50,86
333,269	-33,11
333,476	11,95
333,683	40,62
333,889	67,24
334,096	-35,16
334,303	100,01
334,509	-10,58
334,716	194,22
334,923	57
335,129	-74,07
335,336	100,01
335,543	3,75
335,749	-45,4
335,956	120,49
336,163	-125,27
336,369	89,77
336,576	-43,35
336,782	161,45
336,989	-61,78
337,196	140,97
337,402	-135,51
337,609	-119,12
337,815	24,23
338,022	251,56
338,228	83,63
338,435	247,46
338,641	157,35
338,848	231,08
339,054	124,58
339,261	-117,08
339,467	-168,27
339,674	132,78
339,88	77,48
340,087	-129,36
340,293	-26,96
340,5	30,38
340,706	108,2
340,912	-164,18
341,119	9,9
341,325	-8,53
341,532	-84,31
341,738	-115,03
341,944	231,08
342,151	83,63
342,357	-18,77
342,563	89,77
342,77	59,05
342,976	1,71
343,182	104,11
343,389	5,8
343,595	-43,35
343,801	-22,87
344,007	71,34
344,214	-129,36
344,42	36,52
344,626	24,23
344,832	-72,02
345,039	-98,64
345,245	77,48
345,451	28,33
345,657	50,86
345,864	-137,56
346,07	116,39
346,276	183,98
346,482	85,67
346,688	57
346,894	-16,73
347,1	57
347,307	32,43
347,513	173,74
347,719	50,86
347,925	165,54
348,131	-250,19
348,337	11,95
348,543	-14,68
348,749	-8,53
348,955	130,73
349,161	-180,56
349,367	11,95
349,573	300,71
349,779	48,81
349,985	-53,59
350,191	-65,88
350,397	179,88
350,603	89,77
350,809	-8,53
351,015	97,96
351,221	-18,77
351,427	81,58
351,633	140,97
351,839	235,18
352,045	124,58
352,251	169,64
352,457	-63,83
352,663	163,5
352,869	50,86
353,075	61,1
353,28	-84,31
353,486	38,57
353,692	-18,77
353,898	-96,6
354,104	-88,4
354,31	241,32
354,515	-155,99
354,721	104,11
354,927	1,71
355,133	196,26
355,339	120,49
355,544	-0,34
355,75	38,57
355,956	87,72
356,162	102,06
356,367	-119,12
356,573	77,48
356,779	-37,2
356,984	171,69
357,19	204,46
357,396	97,96
357,602	396,96
357,807	71,34
358,013	26,28
358,218	36,52
358,424	-55,64
358,63	-100,69
358,835	24,23
359,041	-108,88
359,247	73,39
359,452	-26,96
359,658	-133,46
359,863	87,72
360,069	177,83
360,274	140,97
360,48	71,34
360,685	-14,68
360,891	202,41
361,097	20,14
361,302	-37,2
361,508	198,31
361,713	91,82
361,918	403,11
362,124	-96,6
362,329	34,47
362,535	85,67
362,74	28,33
362,946	-2,39
363,151	-59,73
363,357	34,47
363,562	-61,78
363,767	-88,4
363,973	112,3
364,178	50,86
364,383	-18,77
364,589	20,14
364,794	-110,93
365	104,11
365,205	149,16
365,41	-14,68
365,615	-20,82
365,821	-76,12
366,026	272,04
366,231	100,01
366,437	163,5
366,642	-190,8
366,847	206,5
367,052	5,8
367,258	-92,5
367,463	-59,73
367,668	34,47
367,873	175,78
368,078	102,06
368,284	-219,47
368,489	-88,4
368,694	26,28
368,899	-82,26
369,104	202,41
369,309	79,53
369,515	-59,73
369,72	67,24
369,925	9,9
370,13	212,65
370,335	59,05
370,54	-14,68
370,745	91,82
370,95	95,91
371,155	75,43
371,36	26,28
371,565	186,02
371,77	116,39
371,975	-84,31
372,18	59,05
372,385	218,79
372,59	100,01
372,795	13,99
373	38,57
373,205	216,74
373,41	151,21
373,615	-123,22
373,82	-160,08
374,025	24,23
374,23	-139,6
374,435	-39,25
374,64	42,67
374,845	122,54
375,05	63,15
375,254	-43,35
375,459	-129,36
375,664	59,05
375,869	-2,39
376,074	-94,55
376,279	-37,2
376,483	116,39
376,688	-26,96
376,893	44,71
377,098	-149,84
377,303	181,93
377,507	222,89
377,712	20,14
377,917	108,2
378,122	249,51
378,326	104,11
378,531	-53,59
378,736	-76,12
378,94	-39,25
379,145	22,19
379,35	67,24
379,554	-10,58
379,759	-129,36
379,964	114,34
380,168	-63,83
380,373	-57,68
380,578	255,65
380,782	505,51
380,987	97,96
381,191	-117,08
381,396	136,87
381,601	97,96
381,805	65,19
382,01	183,98
382,214	194,22
382,419	124,58
382,623	-2,39
382,828	-22,87
383,032	-55,64
383,237	-127,32
383,441	-110,93
383,646	165,54
383,85	-26,96
384,055	151,21
384,259	-22,87
384,464	-162,13
384,668	-8,53
384,872	65,19
385,077	16,04
385,281	-14,68
385,486	-12,63
385,69	149,16
385,894	87,72
386,099	75,43
386,303	93,87
386,507	229,03
386,712	169,64
386,916	-67,92
387,12	-139,6
387,325	317,09
387,529	11,95
387,733	124,58
387,937	-96,6
388,142	-45,4
388,346	-88,4
388,55	-6,49
388,754	143,02
388,959	-43,35
389,163	-31,06
389,367	7,85
389,571	-55,64
389,775	222,89
389,98	38,57
390,184	63,15
390,388	32,43
390,592	124,58
390,796	-2,39
391	-4,44
391,204	-29,01
391,409	-26,96
391,613	54,95
391,817	-94,55
392,021	161,45
392,225	38,57
392,429	-59,73
392,633	-0,34
392,837	108,2
393,041	46,76
393,245	104,11
393,449	-86,36
393,653	9,9
393,857	128,68
394,061	63,15
394,265	7,85
394,469	-2,39
394,673	104,11
394,877	124,58
395,081	44,71
395,285	265,89
395,489	130,73
395,693	34,47
395,896	13,99
396,1	237,22
396,304	155,3
396,508	-65,88
396,712	9,9
396,916	-26,96
397,12	50,86
397,323	34,47
397,527	122,54
397,731	304,81
397,935	165,54
398,139	59,05
398,342	110,25
398,546	255,65
398,75	85,67
398,954	44,71
399,157	272,04
399,361	310,95
399,565	71,34
399,769	140,97
399,972	108,2
400,176	95,91
400,38	132,78
400,583	-43,35
400,787	83,63
400,991	233,13
401,194	196,26
401,398	110,25
401,601	93,87
401,805	263,85
402,009	165,54
402,212	97,96
402,416	323,24
402,619	24,23
402,823	353,96
403,026	-12,63
403,23	34,47
403,433	409,25
403,637	204,46
403,841	118,44
404,044	143,02
404,247	44,71
404,451	175,78
404,654	149,16
404,858	159,4
405,061	165,54
405,265	229,03
405,468	233,13
405,672	5,8
405,875	300,71
406,078	140,97
406,282	81,58
406,485	18,09
406,689	407,2
406,892	401,06
407,095	36,52
407,299	116,39
407,502	333,48
407,705	128,68
407,909	44,71
408,112	204,46
408,315	272,04
408,518	532,13
408,722	194,22
408,925	224,94
409,128	509,6
409,331	358,05
409,535	261,8
409,738	216,74
409,941	634,53
410,144	255,65
410,347	374,44
410,551	394,92
410,754	298,66
410,957	396,96
411,16	167,59
411,363	356,01
411,566	411,3
411,769	460,45
411,973	399,01
412,176	356,01
412,379	773,79
412,582	642,72
412,785	437,92
412,988	210,6
413,191	501,41
413,394	480,93
413,597	263,85
413,8	374,44
414,003	837,28
414,206	468,64
414,409	513,7
414,612	388,77
414,815	564,9
415,018	663,2
415,221	501,41
415,424	753,31
415,627	689,82
415,83	655,01
416,033	618,15
416,235	644,77
416,438	868
416,641	886,43
416,844	644,77
417,047	523,94
417,25	605,86
417,453	722,59
417,655	587,43
417,858	749,22
418,061	652,96
418,264	765,6
418,467	720,54
418,669	833,18
418,872	1080,99
419,075	900,76
419,278	788,13
419,48	1044,12
419,683	1138,33
419,886	849,57
420,089	921,24
420,291	1136,28
420,494	890,53
420,697	1017,5
420,899	1232,54
421,102	908,96
421,305	1324,69
421,507	1324,69
421,71	1269,4
421,912	1183,38
422,115	1152,67
422,318	1416,85
422,52	1398,42
422,723	1347,22
422,925	1640,08
423,128	1666,71
423,33	1310,36
423,533	1437,33
423,735	1588,88
423,938	1652,37
424,14	1767,06
424,343	1728,14
424,545	1998,48
424,748	1842,83
424,95	1750,67
425,153	1631,89
425,355	1865,36
425,558	2029,2
425,76	1838,73
425,962	1937,04
426,165	1889,93
426,367	2047,63
426,57	2014,86
426,772	1967,76
426,974	2350,73
427,177	1963,66
427,379	2174,6
427,581	2420,36
427,784	2406,02
427,986	2113,16
428,188	2268,81
428,39	2363,01
428,593	2479,75
428,795	2774,66
428,997	2561,67
429,2	2659,97
429,402	2758,27
429,604	2680,45
429,806	2659,97
430,008	3018,36
430,211	3106,43
430,413	2915,97
430,615	2952,83
430,817	3178,11
431,019	3073,66
431,221	3276,41
431,423	2889,34
431,626	3131
431,828	3315,32
432,03	3135,1
432,232	3182,2
432,434	3376,76
432,636	3585,65
432,838	3393,14
433,04	3565,17
433,242	3595,89
433,444	3536,5
433,646	3884,66
433,848	3632,76
434,05	3763,83
434,252	3552,88
434,454	3729,01
434,656	3784,3
434,858	3958,38
435,06	3892,85
435,262	4130,41
435,464	4212,33
435,666	4245,1
435,868	4433,51
436,07	4443,75
436,271	4400,74
436,473	4347,5
436,675	4892,26
436,877	4658,79
437,079	4402,79
437,281	4441,7
437,482	4832,86
437,684	4906,59
437,886	4738,66
438,088	4793,95
438,29	4765,28
438,491	5135,96
438,693	4863,58
438,895	4890,21
439,097	5815,89
439,298	5269,08
439,5	4974,17
439,702	5056,09
439,903	5361,24
440,105	5529,17
440,307	5658,2
440,508	5541,46
440,71	5875,28
440,912	5934,67
441,113	5533,27
441,315	5783,12
441,517	5762,64
441,718	6162
441,92	5987,92
442,121	5926,48
442,323	6188,62
442,524	6192,72
442,726	6512,2
442,928	6291,02
443,129	6444,62
443,331	6374,99
443,532	6719,04
443,734	6489,67
443,935	7106,11
444,136	6528,58
444,338	7224,89
444,539	7036,48
444,741	7298,62
444,942	7251,52
445,144	7208,51
445,345	7618,1
445,546	7366,2
445,748	7335,48
445,949	7341,63
446,151	7437,88
446,352	7638,58
446,553	8117,81
446,755	7634,49
446,956	8058,42
447,157	8001,07
447,359	8054,32
447,56	8240,68
447,761	8259,12
447,962	8838,69
448,164	8885,8
448,365	8117,81
448,566	8482,35
448,767	8328,75
448,969	9160,22
449,17	8791,59
449,371	8545,83
449,572	9109,02
449,773	8828,45
449,974	8883,75
450,176	9031,2
450,377	9244,19
450,578	9528,86
450,779	8918,56
450,98	8435,24
451,181	9211,42
451,382	9074,21
451,583	9448,99
451,784	9414,17
451,986	9995,79
452,187	9389,6
452,388	9195,04
452,589	9094,69
452,79	9887,25
452,991	9094,69
453,192	9807,38
453,393	9389,6
453,594	9963,03
453,795	9074,21
453,995	9135,65
454,196	9186,85
454,397	9528,86
454,598	9233,95
454,799	9254,43
455	9543,19
455,201	9248,29
455,402	9643,54
455,603	9027,1
455,804	9764,37
456,004	9520,67
456,205	8947,23
456,406	8943,14
456,607	8601,13
456,808	9399,84
457,008	8506,92
457,209	8404,52
457,41	9293,34
457,611	8754,73
457,811	9115,17
458,012	8676,9
458,213	8422,95
458,414	8500,78
458,614	8390,19
458,815	8166,96
459,016	8255,02
459,216	8486,44
459,417	8240,68
459,618	8341,04
459,818	7906,87
460,019	7654,97
460,22	7853,62
460,42	7960,11
460,621	7503,42
460,821	7544,38
461,022	7745,08
461,223	6882,88
461,423	7177,79
461,624	7220,8
461,824	7073,34
462,025	6895,17
462,225	7030,34
462,426	7257,66
462,626	6946,37
462,827	6696,52
463,027	6682,18
463,228	6673,99
463,428	6598,21
463,628	6495,82
463,829	6768,2
464,029	6198,86
464,23	6213,2
464,43	6295,11
464,63	5903,95
464,831	6045,26
465,031	6217,29
465,231	5996,11
465,432	6110,8
465,632	6399,56
465,832	5459,54
466,033	5731,92
466,233	5555,8
466,433	5891,66
466,634	5852,75
466,834	6016,59
467,034	5369,43
467,234	5928,53
467,435	5731,92
467,635	5488,21
467,835	4933,22
468,035	5627,48
468,235	5357,14
468,436	5250,65
468,636	5088,86
468,836	4900,45
469,036	5516,89
469,236	5226,07
469,436	5041,76
469,636	5447,26
469,836	4990,56
470,037	5054,05
470,237	5000,8
470,437	5191,26
470,637	4998,75
470,837	4968,03
471,037	5078,62
471,237	5054,05
471,437	5015,13
471,637	4861,54
471,837	4974,17
472,037	4920,93
472,237	4961,89
472,437	4898,4
472,637	4970,08
472,837	4957,79
473,036	4720,23
473,236	4636,26
473,436	4675,17
473,636	4646,5
473,836	4544,1
474,036	4779,62
474,236	4673,12
474,436	4755,04
474,635	4781,67
474,835	4542,05
475,035	4943,46
475,235	4976,22
475,435	4634,21
475,634	4644,45
475,834	4841,06
476,034	4832,86
476,234	4546,15
476,433	4730,47
476,633	4800,1
476,833	4693,6
477,033	4531,81
477,232	4552,29
477,432	4372,07
477,632	4982,37
477,831	4748,9
478,031	4462,18
478,231	4591,2
478,43	4531,81
478,63	4533,86
478,829	4144,75
479,029	4453,99
479,229	4484,71
479,428	4451,94
479,628	4437,61
479,827	4578,92
480,027	4548,2
480,226	4867,68
480,426	4556,39
480,625	4558,44
480,825	4767,33
481,024	4505,19
481,224	4714,08
481,423	4472,42
481,623	4906,59
481,822	4353,64
482,021	4638,31
482,221	4634,21
482,42	4826,72
482,62	4587,11
482,819	4460,13
483,018	4619,88
483,218	4527,72
483,417	4638,31
483,616	4447,85
483,816	4456,04
484,015	4773,47
484,214	4707,94
484,414	4556,39
484,613	4494,95
484,812	4568,68
485,011	4400,74
485,211	4701,79
485,41	4673,12
485,609	4439,65
485,808	4566,63
486,008	4728,42
486,207	4466,28
486,406	4677,22
486,605	4681,32
486,804	4544,1
487,003	4613,73
487,203	4611,68
487,402	4666,98
487,601	4439,65
487,8	4699,75
487,999	4589,16
488,198	4593,25
488,397	4722,27
488,596	4580,96
488,795	4617,83
488,994	4818,53
489,193	4566,63
489,392	4798,05
489,591	4591,2
489,79	4765,28
489,989	4773,47
490,188	4709,99
490,387	4951,65
490,586	4691,56
490,785	4789,86
490,984	4814,43
491,183	4939,36
491,382	4843,1
491,581	4705,89
491,779	4812,39
491,978	4920,93
492,177	5045,85
492,376	4853,34
492,575	4908,64
492,774	4849,25
492,972	4855,39
493,171	4705,89
493,37	4777,57
493,569	5142,11
493,768	5090,91
493,966	5074,53
494,165	5011,04
494,364	5285,47
494,563	5396,06
494,761	5144,16
494,96	5000,8
495,159	5197,4
495,357	4972,13
495,556	5162,59
495,755	5224,03
495,953	5285,47
496,152	5187,16
496,35	5228,12
496,549	5219,93
496,748	5439,06
496,946	5510,74
497,145	5389,91
497,343	5293,66
497,542	5170,78
497,74	5496,41
497,939	5488,21
498,137	5432,92
498,336	5650
498,534	5615,19
498,733	5443,16
498,931	5543,51
499,13	5361,24
499,328	5566,04
499,527	6022,73
499,725	5631,57
499,924	5850,71
500,122	5652,05
500,32	6067,79
500,519	5932,62
500,717	6024,78
500,915	5926,48
501,114	5903,95
501,312	6155,85
501,51	6139,47
501,709	6409,8
501,907	6710,85
502,105	6178,38
502,304	6477,38
502,502	6741,57
502,7	6717
502,898	6528,58
503,097	6895,17
503,295	6696,52
503,493	6843,97
503,691	7075,39
503,889	6880,83
504,088	7022,14
504,286	7245,37
504,484	7368,25
504,682	7331,39
504,88	7527,99
505,078	7515,7
505,276	7685,69
505,474	8146,48
505,672	7804,47
505,871	7994,93
506,069	7870
506,267	8115,76
506,465	8439,34
506,663	8287,79
506,861	8478,25
507,059	8721,96
507,257	8975,91
507,455	8916,51
507,653	8859,17
507,851	9410,08
508,049	9117,22
508,246	9461,27
508,444	9664,02
508,642	9840,15
508,84	9909,78
509,038	9987,6
509,236	10180,11
509,434	10296,85
509,632	10782,21
509,829	10909,19
510,027	10477,07
510,225	11156,99
510,423	11310,59
510,621	11232,77
510,818	11701,75
511,016	11795,96
511,214	12066,29
511,412	12406,25
511,609	12107,25
511,807	12652,01
512,005	12652,01
512,203	13188,58
512,4	13180,39
512,598	13536,73
512,796	13544,92
512,993	13768,15
513,191	13979,09
513,389	14147,03
513,586	14814,66
513,784	14462,41
513,981	15044,04
514,179	15259,07
514,377	15373,76
514,574	15955,38
514,772	15699,39
514,969	16584,11
515,167	16436,66
515,364	16821,67
515,562	16866,73
515,759	17536,42
515,957	17352,1
516,154	17606,05
516,352	17829,27
516,549	18183,57
516,746	18388,37
516,944	19021,19
517,141	18814,35
517,339	19309,96
517,536	19832,19
517,733	19629,44
517,931	20305,27
518,128	20639,09
518,325	21032,3
518,523	21138,79
518,72	21278,05
518,917	21861,73
519,115	22484,31
519,312	22216,02
519,509	22854,99
519,707	22652,24
519,904	23004,49
520,101	24085,82
520,298	23921,98
520,495	24425,78
520,693	24057,15
520,89	24835,38
521,087	24497,46
521,284	25890,08
521,481	25842,98
521,678	25974,05
521,876	26324,25
522,073	26815,76
522,27	26633,49
522,467	27247,88
522,664	27473,16
522,861	28056,83
523,058	28173,56
523,255	28138,75
523,452	29002,99
523,649	29232,36
523,846	29314,28
524,043	29996,26
524,24	30082,27
524,437	30690,52
524,634	30772,44
524,831	31003,86
525,028	31182,03
525,225	31952,07
525,422	31821
525,619	32498,87
525,816	32304,32
526,013	33893,54
526,209	33309,87
526,406	33346,73
526,603	33453,23
526,8	34018,47
526,997	34200,74
527,194	34974,87
527,39	34940,05
527,587	34819,22
527,784	35660,94
527,981	35544,2
528,177	36058,24
528,374	36529,28
528,571	36609,15
528,768	36932,73
528,964	36795,51
529,161	37383,28
529,358	38218,85
529,554	38175,84
529,751	38265,95
529,948	38792,28
530,144	38755,42
530,341	39308,37
530,537	39234,64
530,734	40367,17
530,931	39869,51
531,127	40625,21
531,324	40881,21
531,52	40995,9
531,717	40991,8
531,913	40899,64
532,11	40987,71
532,306	42015,79
532,503	42159,14
532,699	42046,51
532,896	42542,11
533,092	43002,91
533,289	42896,41
533,485	43451,41
533,682	43387,92
533,878	43818
534,074	43330,58
534,271	44291,08
534,467	43676,69
534,664	44631,04
534,86	44772,35
535,056	45208,57
535,253	45292,54
535,449	46136,3
535,645	45880,3
535,841	46498,79
536,038	46390,25
536,234	46423,01
536,43	46638,05
536,626	46722,02
536,823	46236,65
537,019	47328,22
537,215	47100,89
537,411	47481,81
537,607	47606,74
537,804	48714,69
538	48643,01
538,196	48913,34
538,392	48948,16
538,588	49415,1
538,784	49068,99
538,98	48772,03
539,176	49015,74
539,373	50285,48
539,569	49933,23
539,765	50346,92
539,961	50336,68
540,157	50623,4
540,353	50285,48
540,549	50639,78
540,745	50801,57
540,941	51063,71
541,137	51237,79
541,333	51215,26
541,528	51399,58
541,724	51510,17
541,92	51674,01
542,116	51110,81
542,312	51940,24
542,508	52147,09
542,704	52159,37
542,9	52269,97
543,096	51960,72
543,291	52820,87
543,487	52581,26
543,683	52867,97
543,879	52775,81
544,075	53320,57
544,27	53523,32
544,466	53799,8
544,662	53867,38
544,858	54938,47
545,053	54260,59
545,249	54557,55
545,445	53810,04
545,64	54360,94
545,836	54088,56
546,032	54246,25
546,227	54139,76
546,423	53967,73
546,619	54322,03
546,814	55065,44
547,01	54602,6
547,205	55358,3
547,401	54027,12
547,597	55384,93
547,792	54539,11
547,988	55659,35
548,183	55642,97
548,379	56173,39
548,574	55786,33
548,77	56130,39
548,965	56261,46
549,161	55921,49
549,356	55724,89
549,552	56847,18
549,747	56265,55
549,942	56726,35
550,138	56351,57
550,333	56490,83
550,529	57189,19
550,724	57054,02
550,919	56290,13
551,115	57103,17
551,31	57086,79
551,505	57117,51
551,701	56929,09
551,896	57176,9
552,091	57424,7
552,287	58030,9
552,482	57459,52
552,677	57611,07
552,872	57101,12
553,067	56666,95
553,263	57418,56
553,458	57625,4
553,653	56922,95
553,848	57234,24
554,043	56578,89
554,239	57758,52
554,434	57617,21
554,629	57895,74
554,824	57666,36
555,019	57967,41
555,214	57940,79
555,409	57973,56
555,604	58080,05
555,799	58442,54
555,994	58366,77
556,189	58061,62
556,384	57692,99
556,579	58585,9
556,774	58227,51
556,969	58491,69
557,164	58336,05
557,359	58870,57
557,554	58391,34
557,749	58518,32
557,944	58284,85
558,139	58293,04
558,334	58274,61
558,529	58209,07
558,724	57822,01
558,918	58358,58
559,113	58170,16
559,308	58673,96
559,503	58469,17
559,698	58104,63
559,893	58180,4
560,087	57789,24
560,282	58022,71
560,477	58327,86
560,672	58252,08
560,866	58483,5
561,061	58321,71
561,256	58350,38
561,45	58305,33
561,645	58882,86
561,84	58149,68
562,034	58784,55
562,229	58024,76
562,424	58571,56
562,618	58075,96
562,813	58581,8
563,008	57666,36
563,202	58430,26
563,397	57885,5
563,591	58043,19
563,786	58118,96
563,98	58209,07
564,175	57670,46
564,369	57713,47
564,564	58487,6
564,758	57756,47
564,953	57621,31
565,147	57590,59
565,342	57193,28
565,536	57785,14
565,731	57496,38
565,925	58098,48
566,119	58037,05
566,314	58170,16
566,508	57903,93
566,703	58575,66
566,897	57721,66
567,091	58096,44
567,286	57516,86
567,48	58073,91
567,674	58022,71
567,868	57850,68
568,063	57699,13
568,257	58354,48
568,451	58020,66
568,646	58069,81
568,84	57922,36
569,034	58026,81
569,228	58354,48
569,422	58190,64
569,616	57838,39
569,811	57862,97
570,005	57793,34
570,199	57670,46
570,393	57676,6
570,587	57826,1
570,781	57224
570,975	57416,51
571,169	56716,11
571,364	57553,72
571,558	57543,48
571,752	57951,03
571,946	57142,08
572,14	58051,38
572,334	57568,06
572,528	57688,89
572,722	57129,79
572,916	57633,6
573,109	57162,56
573,303	57533,24
573,497	57127,75
573,691	57725,75
573,885	57594,68
574,079	58385,2
574,273	57164,61
574,467	57248,58
574,661	57164,61
574,854	57160,51
575,048	57150,27
575,242	56740,68
575,436	56922,95
575,63	56861,51
575,823	56570,7
576,017	57529,15
576,211	56415,05
576,405	57383,74
576,598	57060,16
576,792	57334,59
576,986	56859,46
577,18	56845,13
577,373	57068,36
577,567	57379,65
577,761	57707,32
577,954	57381,7
578,148	57039,68
578,341	57043,78
578,535	56998,72
578,729	57070,4
578,922	55941,97
579,116	56832,84
579,309	55733,08
579,503	56273,74
579,696	56075,09
579,89	56800,07
580,083	56558,41
580,277	56339,28
580,47	56093,52
580,664	56249,17
580,857	55948,12
581,051	56269,65
581,244	56140,63
581,437	57021,25
581,631	56486,73
581,824	56916,81
582,018	56806,22
582,211	57217,86
582,404	56425,29
582,598	56283,98
582,791	56013,65
582,984	55524,19
583,178	55589,72
583,371	55964,5
583,564	55939,93
583,757	56349,52
583,951	56081,23
584,144	55939,93
584,337	55389,02
584,53	55681,88
584,723	55296,86
584,917	55667,55
585,11	55307,1
585,303	56103,76
585,496	55001,96
585,689	55241,57
585,882	54817,64
586,075	55077,73
586,268	54917,99
586,462	54922,08
586,655	54610,79
586,848	55333,73
587,041	54479,72
587,234	54414,19
587,427	53980,02
587,62	54745,96
587,813	54420,33
588,006	54686,57
588,199	53910,39
588,392	54657,9
588,585	54102,9
588,777	54037,36
588,97	53529,47
589,163	54721,38
589,356	54397,8
589,549	53975,92
589,742	53644,15
589,935	53758,84
590,128	53638,01
590,32	53848,95
590,513	53500,79
590,706	54231,92
590,899	52968,32
591,092	53664,63
591,284	53465,98
591,477	53769,08
591,67	53838,71
591,863	53498,75
592,055	53545,85
592,248	53816,18
592,441	54080,37
592,633	53795,7
592,826	53080,96
593,019	53410,68
593,211	53312,38
593,404	53095,3
593,596	52829,06
593,789	52448,14
593,982	52380,56
594,174	52468,62
594,367	52706,18
594,559	53255,04
594,752	52464,52
594,944	52065,17
595,137	51921,81
595,329	52059,02
595,522	52360,08
595,714	52280,2
595,907	52517,77
596,099	51958,67
596,292	52198,29
596,484	51997,59
596,676	51375
596,869	51669,91
597,061	51960,72
597,253	51426,2
597,446	51119,01
597,638	51663,77
597,83	50756,52
598,023	51624,85
598,215	51432,35
598,407	51645,33
598,6	50797,48
598,792	51194,78
598,984	50684,84
599,176	50643,88
599,369	50774,95
599,561	50826,15
599,753	49787,83
599,945	50582,44
600,137	49679,28
600,329	49728,44
600,522	49314,75
600,714	49898,42
600,906	49370,04
601,098	49931,18
601,29	49466,3
601,482	49843,12
601,674	49796,02
601,866	50015,15
602,058	49466,3
602,25	49378,23
602,442	49324,99
602,634	49089,47
602,826	48618,44
603,018	49140,67
603,21	49210,3
603,402	48888,77
603,594	48188,36
603,786	48495,56
603,978	48309,19
604,17	47997,9
604,362	48083,92
604,554	48090,06
604,745	48040,91
604,937	48364,49
605,129	48333,77
605,321	47668,18
605,513	48458,7
605,704	48804,8
605,896	47317,98
606,088	47657,94
606,28	47049,69
606,471	47483,86
606,663	46668,77
606,855	47047,64
607,047	47016,93
607,238	47786,96
607,43	46392,29
607,622	47256,54
607,813	46564,32
608,005	46660,58
608,197	46175,21
608,388	46670,82
608,58	45890,54
608,771	46830,56
608,963	45632,5
609,154	45982,7
609,346	45423,61
609,537	45468,66
609,729	45175,8
609,921	45251,58
610,112	44692,48
610,303	45075,45
610,495	43930,64
610,686	44379,14
610,878	44301,32
611,069	44119,05
611,261	43942,92
611,452	43422,74
611,643	43158,55
611,835	43281,43
612,026	43027,48
612,217	43322,39
612,409	43039,77
612,6	42738,72
612,791	42396,71
612,983	42814,49
613,174	42880,03
613,365	42730,53
613,557	42220,58
613,748	42540,07
613,939	42490,91
614,13	42470,43
614,321	42191,91
614,513	42937,37
614,704	41913,39
614,895	42118,18
615,086	41624,62
615,277	41604,14
615,468	41456,69
615,659	41598
615,851	41129,02
616,042	41495,6
616,233	41360,44
616,424	41524,27
616,615	40815,68
616,806	41354,29
616,997	40580,16
617,188	41086,01
617,379	41055,29
617,57	41233,46
617,761	41286,71
617,952	40866,88
618,143	40563,78
618,334	40522,82
618,524	40406,08
618,715	40320,07
618,906	40246,34
619,097	40375,36
619,288	40205,38
619,479	40725,57
619,67	40019,02
619,86	40213,57
620,051	40107,08
620,242	40750,14
620,433	40399,94
620,624	41243,7
620,814	41036,86
621,005	40348,74
621,196	40160,33
621,386	40590,4
621,577	40381,51
621,768	40848,44
621,958	40418,37
622,149	40709,18
622,34	40750,14
622,53	40426,56
622,721	40385,6
622,912	41583,66
623,102	40999,99
623,293	41247,8
623,483	40762,43
623,674	41043
623,864	40797,24
624,055	40567,87
624,245	40447,04
624,436	40989,75
624,626	40938,55
624,817	40821,82
625,007	40584,26
625,198	41096,25
625,388	40508,48
625,579	40789,05
625,769	40741,95
625,959	40576,06
626,15	40129,61
626,34	40000,58
626,531	40080,46
626,721	40205,38
626,911	39406,67
627,101	39865,42
627,292	39746,64
627,482	40252,48
627,672	40045,64
627,863	39922,76
628,053	39609,42
628,243	40006,73
628,433	39490,64
628,623	39580,75
628,814	39195,73
629,004	39849,03
629,194	39283,8
629,384	39373,91
629,574	39171,16
629,764	39629,9
629,955	38999,13
630,145	38939,74
630,335	38726,75
630,525	38489,18
630,715	38394,98
630,905	38530,14
631,095	38120,55
631,285	38706,27
631,475	38124,64
631,665	38161,51
631,855	37850,22
632,045	38179,94
632,235	38165,6
632,425	37839,98
632,615	37850,22
632,805	38081,64
632,994	37336,18
633,184	37932,14
633,374	37332,08
633,564	37315,7
633,754	37477,49
633,944	37194,87
634,133	36412,54
634,323	37094,52
634,513	36469,89
634,703	36600,96
634,893	35947,65
635,082	36316,29
635,272	35818,63
635,462	35599,5
635,651	35622,03
635,841	35802,25
636,031	35527,82
636,221	34745,5
636,41	35142,8
636,6	34710,68
636,789	35026,07
636,979	34886,81
637,169	34790,55
637,358	35163,28
637,548	35001,49
637,737	34630,81
637,927	34419,87
638,116	34600,09
638,306	34251,94
638,495	34131,11
638,685	33717,42
638,874	34000,04
639,064	33860,77
639,253	33696,94
639,443	33154,22
639,632	33356,97
639,822	33242,29
640,011	33154,22
640,2	32793,78
640,39	32675
640,579	33017,01
640,768	32431,29
640,958	32287,93
641,147	32441,53
641,336	32558,27
641,526	32916,66
641,715	32672,95
641,904	33004,72
642,093	32257,21
642,283	32435,39
642,472	31804,61
642,661	31925,44
642,85	32023,75
643,039	31401,16
643,228	31196,37
643,418	31349,96
643,607	31415,5
643,796	31245,52
643,985	30489,82
644,174	30518,49
644,363	30778,58
644,552	30690,52
644,741	29764,84
644,93	30436,57
645,119	29967,59
645,308	30264,54
645,497	30328,03
645,686	30481,63
645,875	30049,5
646,064	29846,76
646,253	29639,91
646,442	30012,64
646,631	29568,23
646,82	29142,25
647,009	28536,06
647,198	28925,17
647,387	29050,1
647,575	28531,96
647,764	29002,99
647,953	28540,15
648,142	28531,96
648,331	28290,3
648,519	27933,95
648,708	28222,72
648,897	27723,01
649,086	28192
649,274	27317,51
649,463	27942,14
649,652	27731,2
649,84	27571,46
650,029	27170,06
650,218	27428,1
650,406	27204,88
650,595	27053,33
650,784	27145,48
650,972	26846,48
651,161	26453,27
651,349	26436,89
651,538	26672,4
651,726	27016,46
651,915	26518,81
652,104	26397,98
652,292	25777,44
652,481	26309,91
652,669	26195,23
652,857	25926,94
653,046	25777,44
653,234	26217,75
653,423	25957,66
653,611	26023,2
653,8	25453,86
653,988	26045,73
654,176	24804,66
654,365	25255,21
654,553	25044,27
654,741	25480,49
654,93	24505,65
655,118	24735,03
655,306	24915,25
655,494	24231,22
655,683	24210,75
655,871	24110,39
656,059	24538,42
656,247	23997,76
656,436	24468,79
656,624	24065,34
656,812	23602,5
657	23643,46
657,188	23577,92
657,376	23266,63
657,564	23391,56
657,753	23766,34
657,941	23149,9
658,129	23448,9
658,317	23244,1
658,505	23145,8
658,693	22805,84
658,881	22730,06
659,069	22601,04
659,257	22527,31
659,445	22586,71
659,633	22854,99
659,821	22807,89
660,009	22959,44
660,197	22504,79
660,384	22144,34
660,572	22273,37
660,76	22392,15
660,948	22068,57
661,136	21575,01
661,324	21693,79
661,512	21759,33
661,699	21417,32
661,887	21650,78
662,075	21632,35
662,263	21335,4
662,451	21484,9
662,638	21368,16
662,826	21091,69
663,014	21568,87
663,201	20970,86
663,389	20876,65
663,577	20884,84
663,764	21167,46
663,952	20495,73
664,14	20958,57
664,327	20536,69
664,515	20995,43
664,702	20546,93
664,89	20403,57
665,078	20123
665,265	20151,67
665,453	20131,19
665,64	19901,82
665,828	19592,58
666,015	19998,07
666,203	19520,9
666,39	19617,15
666,578	19236,23
666,765	19293,57
666,952	19774,84
667,14	19461,51
667,327	19262,85
667,515	19262,85
667,702	19424,64
667,889	18982,28
668,077	18662,8
668,264	19348,87
668,451	19058,06
668,638	18945,42
668,826	18572,69
669,013	18728,33
669,2	18748,81
669,388	18556,3
669,575	18234,77
669,762	18079,13
669,949	18247,06
670,136	22543,7
670,323	17847,71
670,511	18081,17
670,698	17968,54
670,885	17640,86
671,072	17511,84
671,259	17937,82
671,446	17665,44
671,633	17354,15
671,82	17358,24
672,007	17073,57
672,194	17026,47
672,381	16854,44
672,568	17139,11
672,755	17102,25
672,942	16833,96
673,129	16618,93
673,316	16534,96
673,503	17137,06
673,69	16627,12
673,877	16557,49
674,064	16743,85
674,251	16113,08
674,437	16684,46
674,624	16143,8
674,811	16338,35
674,998	16020,92
675,185	16016,82
675,372	16074,17
675,558	15834,55
675,745	16006,58
675,932	15992,25
676,119	15533,5
676,305	15621,56
676,492	16049,59
676,679	15508,93
676,865	15762,87
677,052	15349,18
677,239	15574,46
677,425	15246,79
677,612	15386,05
677,798	14867,91
677,985	15304,13
678,172	14939,59
678,358	15095,24
678,545	14798,28
678,731	14933,45
678,918	14530
679,104	14474,7
679,291	14472,65
679,477	14403,02
679,664	14294,48
679,85	14075,35
680,036	14257,62
680,223	14124,5
680,409	13962,71
680,596	13913,56
680,782	14015,96
680,968	13985,24
681,155	13661,66
681,341	13557,21
681,527	13397,47
681,714	13762,01
681,9	13600,22
682,086	13512,16
682,272	13305,31
682,459	13549,02
682,645	13702,62
682,831	13282,78
683,017	13342,18
683,204	13293,02
683,39	13037,03
683,576	13047,27
683,762	12729,83
683,948	12719,59
684,134	12422,64
684,32	12641,77
684,506	12477,93
684,693	12690,92
684,879	12461,55
685,065	12416,49
685,251	12160,5
685,437	12142,07
685,623	12201,46
685,809	12162,55
685,995	11961,84
686,181	11961,84
686,366	12195,31
686,552	11851,25
686,738	11777,53
686,924	12000,76
687,11	11884,02
687,296	11808,25
687,482	11525,63
687,668	11486,72
687,853	11249,15
688,039	11345,41
688,225	11138,56
688,411	11441,66
688,597	11494,91
688,782	11228,67
688,968	11027,97
689,154	11001,35
689,34	11279,87
689,525	11087,36
689,711	10999,3
689,897	11345,41
690,082	10970,63
690,268	10862,08
690,454	10569,23
690,639	10796,55
690,825	10980,87
691,01	10704,39
691,196	10376,72
691,381	10698,25
691,567	10411,53
691,753	10376,72
691,938	10204,69
692,124	10409,48
692,309	10442,25
692,494	10126,86
692,68	10065,43
692,865	10161,68
693,051	10192,4
693,236	10133,01
693,422	9979,41
693,607	9799,19
693,792	9791
693,978	9756,18
694,163	9596,44
694,348	9518,62
694,534	9801,24
694,719	9573,91
694,904	9553,43
695,089	9831,96
695,275	9344,54
695,46	9049,63
695,645	9109,02
695,83	9487,9
696,016	9090,59
696,201	9227,81
696,386	9133,6
696,571	9344,54
696,756	8951,33
696,941	9121,31
697,126	8734,25
697,311	8898,08
697,497	9070,11
697,682	8867,36
697,867	8541,74
698,052	8920,61
698,237	8967,71
698,422	8476,2
698,607	8615,46
698,792	8568,36
698,977	8459,82
699,162	8365,61
699,347	8140,33
699,531	8560,17
699,716	8400,43
699,901	8009,26
700,086	8263,21
700,271	8275,5
700,456	8404,52
700,641	8232,49
700,825	7841,33
701,01	8353,32
701,195	8107,57
701,38	8128,05
701,565	7814,71
701,749	7892,53
701,934	7849,52
702,119	7716,4
702,303	7527,99
702,488	7853,62
702,673	7898,67
702,857	7892,53
703,042	7435,83
703,227	7992,88
703,411	7650,87
703,596	7646,77
703,78	7310,91
703,965	7489,08
704,15	7321,15
704,334	7136,83
704,519	7114,3
704,703	7065,15
704,888	7255,61
705,072	7061,05
705,257	6823,49
705,441	6960,7
705,625	7642,68
705,81	6805,06
705,994	6833,73
706,179	7177,79
706,363	7083,58
706,547	6985,28
706,732	6882,88
706,916	6958,66
707,1	6751,81
707,285	6731,33
707,469	6606,41
707,653	6782,53
707,837	6712,9
708,022	6495,82
708,206	6663,75
708,39	6663,75
708,574	6745,67
708,759	6409,8
708,943	6405,7
709,127	6692,42
709,311	6594,12
709,495	6209,1
709,679	6262,35
709,863	6534,73
710,047	6383,18
710,231	6178,38
710,415	6032,97
710,6	6293,07
710,784	6084,17
710,968	6116,94
711,152	6051,41
711,336	6094,41
711,519	6243,92
711,703	5920,34
711,887	6037,07
712,071	6051,41
712,255	5844,56
712,439	5901,9
712,623	5566,04
712,807	5719,64
712,991	5770,83
713,174	5680,72
713,358	5656,15
713,542	5713,49
713,726	5729,88
713,91	5510,74
714,093	5365,34
714,277	5719,64
714,461	5733,97
714,645	5432,92
714,828	5371,48
715,012	5353,05
715,196	5387,86
715,379	5185,12
715,563	5221,98
715,747	5260,89
715,93	5275,23
716,114	5113,44
716,297	4732,51
716,481	4959,84
716,664	5144,16
716,848	4916,83
717,031	4896,35
717,215	4714,08
717,398	5123,68
717,582	4812,39
717,765	4890,21
717,949	4773,47
718,132	4826,72
718,316	4503,14
718,499	4572,77
718,682	5101,15
718,866	4718,18
719,049	4626,02
719,233	4410,98
719,416	4814,43
719,599	4802,15
719,782	4327,02
719,966	4273,77
720,149	4378,22
720,332	4568,68
720,515	4310,63
720,699	4494,95
720,882	4611,68
721,065	4341,35
721,248	4247,15
721,431	4159,08
721,615	4187,75
721,798	4343,4
721,981	4269,67
722,164	4181,61
722,347	4443,75
722,53	4517,48
722,713	3948,14
722,896	3935,85
723,079	4097,64
723,262	4273,77
723,445	4042,35
723,628	3829,36
723,811	4212,33
723,994	4089,45
724,177	4064,88
724,36	3882,61
724,543	4142,7
724,726	3921,52
724,909	3931,76
725,091	3985,01
725,274	3925,61
725,457	3866,22
725,64	3763,83
725,823	3853,94
726,006	3874,42
726,188	3772,02
726,371	4048,49
726,554	3741,3
726,737	3866,22
726,919	3786,35
727,102	3761,78
727,285	3589,75
727,467	3706,48
727,65	3708,53
727,833	3370,62
728,015	3550,84
728,198	3571,32
728,38	3745,39
728,563	3411,57
728,746	3174,01
728,928	3485,3
729,111	3399,29
729,293	3305,08
729,476	3536,5
729,658	3403,38
729,841	3456,63
730,023	3393,14
730,205	3188,35
730,388	3458,68
730,57	3599,99
730,753	3368,57
730,935	3292,79
731,117	3630,71
731,3	3212,92
731,482	3284,6
731,664	3174,01
731,847	3432,05
732,029	3335,8
732,211	3102,33
732,394	2950,78
732,576	3214,97
732,758	3454,58
732,94	3309,18
733,122	3143,29
733,305	3495,54
733,487	3116,67
733,669	3102,33
733,851	2958,97
734,033	3227,26
734,215	3202,68
734,397	3088
734,58	2913,92
734,762	3081,85
734,944	2995,84
735,126	2674,31
735,308	2918,01
735,49	2844,29
735,672	2864,77
735,854	2813,57
736,036	2760,32
736,218	3235,45
736,399	2926,21
736,581	2852,48
736,763	2702,98
736,945	3167,87
737,127	2709,12
737,309	2772,61
737,491	2745,98
737,672	2676,35
737,854	2725,51
738,036	2760,32
738,218	2696,83
738,4	2498,18
738,581	2672,26
738,763	2494,08
738,945	2508,42
739,127	2614,91
739,308	2674,31
739,49	2659,97
739,672	2434,69
739,853	2795,14
740,035	2533
740,216	2336,39
740,398	2381,45
740,58	2606,72
740,761	2590,34
740,943	2571,91
741,124	2326,15
741,306	2356,87
741,487	2528,9
741,669	2397,83
741,85	2209,42
742,032	2455,17
742,213	2322,06
742,394	2211,46
742,576	2246,28
742,757	2754,18
742,939	2408,07
743,12	2066,06
743,301	2096,78
743,483	2207,37
743,664	2094,73
743,845	2164,36
744,027	2090,63
744,208	2166,41
744,389	2193,03
744,57	2182,79
744,752	2115,21
744,933	2297,48
745,114	2061,96
745,295	2098,83
745,476	2129,55
745,657	2164,36
745,839	2141,83
746,02	2066,06
746,201	2131,59
746,382	2346,63
746,563	2328,2
746,744	1967,76
746,925	1871,5
747,106	2154,12
747,287	2207,37
747,468	2031,24
747,649	2010,76
747,83	2004,62
748,011	2174,6
748,192	2037,39
748,373	1865,36
748,554	1902,22
748,735	2059,92
748,915	1894,03
749,096	1853,07
749,277	2170,51
749,458	2250,38
749,639	1947,28
749,82	2004,62
750	1916,56
750,181	2127,5
750,362	1902,22
750,543	2008,72
750,723	2115,21
750,904	1926,8
751,085	1732,24
751,265	1842,83
751,446	1992,33
751,627	1951,37
751,807	1722
751,988	1781,39
752,169	2016,91
752,349	1957,52
752,53	1838,73
752,71	1775,25
752,891	2176,65
753,071	2096,78
753,252	1924,75
753,432	1855,12
753,613	2111,11
753,793	2041,48
753,974	1676,95
754,154	1724,05
754,334	2154,12
754,515	1771,15
754,695	1902,22
754,876	1791,63
755,056	2315,91
755,236	2021
755,417	1724,05
755,597	1889,93
755,777	1703,57
755,957	2092,68
756,138	1732,24
756,318	1705,62
756,498	1822,35
756,678	1836,69
756,859	1861,26
757,039	1746,58
757,219	1963,66
757,399	1740,43
757,579	1695,38
757,759	1621,65
757,939	1627,79
758,119	1926,8
758,3	1662,61
758,48	1595,03
758,66	1726,1
758,84	1601,17
759,02	1670,8
759,2	1447,57
759,38	1719,95
759,56	1980,04
759,74	1541,78
759,919	1519,25
760,099	1767,06
760,279	1805,97
760,459	1670,8
760,639	1531,54
760,819	1775,25
760,999	1455,76
761,178	1537,68
761,358	1439,38
761,538	1588,88
761,718	1574,55
761,898	1400,47
762,077	1564,31
762,257	1564,31
762,437	1832,59
762,616	1472,15
762,796	1347,22
762,976	1685,14
763,155	1461,91
763,335	1369,75
763,515	1367,7
763,694	1722
763,874	1431,19
764,053	1461,91
764,233	1343,13
764,413	1527,44
764,592	1597,07
764,772	1480,34
764,951	1275,54
765,131	1326,74
765,31	1603,22
765,489	1287,83
765,669	1265,3
765,848	1441,43
766,028	1246,87
766,207	1144,47
766,386	1277,59
766,566	1259,16
766,745	1279,64
766,924	1228,44
767,104	1128,09
767,283	1230,49
767,462	1445,52
767,642	1173,14
767,821	1046,17
768	1099,42
768,179	1234,58
768,358	1128,09
768,538	1136,28
768,717	1205,91
768,896	1160,86
769,075	1169,05
769,254	892,57
769,433	1373,85
769,612	1382,04
769,791	890,53
769,97	1066,65
770,149	1246,87
770,328	984,73
770,507	1007,26
770,686	906,91
770,865	1263,26
771,044	1095,32
771,223	814,75
771,402	1011,36
771,581	1214,1
771,76	888,48
771,939	958,11
772,118	802,46
772,297	980,64
772,475	1105,56
772,654	954,01
772,833	925,34
773,012	1416,85
773,191	1146,52
773,369	1003,16
773,548	820,89
773,727	724,64
773,906	1244,82
774,084	917,15
774,263	773,79
774,442	939,68
774,62	882,33
774,799	747,17
774,977	915,1
775,156	1013,4
775,335	1040,03
775,513	732,83
775,692	630,43
775,87	1353,37
776,049	790,17
776,227	751,26
776,406	716,45
776,584	925,34
776,763	956,06
776,941	609,95
777,119	693,92
777,298	679,58
777,476	913,05
777,655	693,92
777,833	575,14
778,011	945,82
778,19	982,68
778,368	718,5
778,546	552,61
778,725	990,88
778,903	704,16
779,081	681,63
779,259	618,15
779,437	736,93
779,616	736,93
779,794	632,48
779,972	601,76
780,15	693,92
780,328	706,21
780,506	591,52
780,685	614,05
780,863	636,58
781,041	507,55
781,219	605,86
781,397	585,38
781,575	673,44
781,753	706,21
781,931	403,11
782,109	411,3
782,287	548,51
782,465	759,46
782,643	517,79
782,82	577,19
782,998	833,18
783,176	810,65
783,354	399,01
783,532	427,68
783,71	683,68
783,888	554,66
784,065	435,88
784,243	468,64
784,421	650,91
784,599	706,21
784,776	474,79
784,954	388,77
785,132	575,14
785,31	421,54
785,487	378,53
785,665	396,96
785,842	640,67
786,02	1056,41
786,198	349,86
786,375	396,96
786,553	683,68
786,73	450,21
786,908	360,1
787,085	431,78
787,263	515,75
787,44	564,9
787,618	509,6
787,795	294,57
787,973	333,48
788,15	554,66
788,328	399,01
788,505	433,83
788,682	702,11
788,86	499,36
789,037	356,01
789,215	323,24
789,392	452,26
789,569	716,45
789,746	368,29
789,924	231,08
790,101	657,06
790,278	710,3
790,455	351,91
790,633	255,65
790,81	444,07
790,987	376,48
791,164	351,91
791,341	296,61
791,518	306,85
791,695	622,24
791,873	237,22
792,05	280,23
792,227	401,06
792,404	403,11
792,581	294,57
792,758	376,48
792,935	327,33
793,112	546,47
793,289	253,61
793,466	325,29
793,643	366,25
793,82	276,13
793,996	321,19
794,173	280,23
794,35	261,8
794,527	640,67
794,704	411,3
794,881	124,58
795,057	530,08
795,234	214,7
795,411	263,85
795,588	208,55
795,765	237,22
795,941	392,87
796,118	198,31
796,295	345,77
796,471	431,78
796,648	345,77
796,825	298,66
797,001	298,66
797,178	554,66
797,354	568,99
797,531	204,46
797,708	138,92
797,884	587,43
798,061	265,89
798,237	136,87
798,414	71,34
798,59	448,16
798,767	353,96
798,943	220,84
799,119	145,06
799,296	409,25
799,472	448,16
799,649	110,25
799,825	167,59
800,001	179,88
800,178	198,31
800,354	263,85
800,53	132,78
800,707	157,35
800,883	239,27
801,059	167,59
801,235	544,42
801,411	280,23
801,588	155,3
801,764	274,09
801,94	116,39
802,116	235,18
802,292	222,89
802,468	196,26
802,645	204,46
802,821	474,79
802,997	380,58
803,173	48,81
803,349	28,33
803,525	237,22
803,701	276,13
803,877	24,23
804,053	112,3
804,229	321,19
804,405	472,74
804,581	140,97
804,756	85,67
804,932	132,78
805,108	249,51
805,284	69,29
805,46	104,11
805,636	319,14
805,812	169,64
805,987	104,11
806,163	-16,73
806,339	2956,93
806,515	149,16
806,69	122,54
806,866	79,53
807,042	396,96
807,217	247,46
807,393	71,34
807,569	-47,44
807,744	507,55
807,92	724,64
808,096	61,1
808,271	61,1
808,447	288,42
808,622	145,06
808,798	104,11
808,973	-10,58
809,149	353,96
809,324	263,85
809,5	-8,53
809,675	-0,34
809,851	304,81
810,026	222,89
810,201	83,63
810,377	75,43
810,552	235,18
810,728	265,89
810,903	114,34
811,078	93,87
811,253	259,75
811,429	32,43
811,604	-22,87
811,779	134,82
811,955	245,41
812,13	147,11
812,305	145,06
812,48	5,8
812,655	392,87
812,83	433,83
813,006	5,8
813,181	40,62
813,356	169,64
813,531	85,67
813,706	102,06
813,881	-37,2
814,056	110,25
814,231	417,44
814,406	73,39
814,581	-108,88
814,756	212,65
814,931	200,36
815,106	59,05
815,281	97,96
815,456	364,2
815,631	255,65
815,805	-57,68
815,98	-22,87
816,155	222,89
816,33	247,46
816,505	-82,26
816,68	32,43
816,854	65,19
817,029	143,02
817,204	-65,88
817,379	20,14
817,553	231,08
817,728	67,24
817,903	48,81
818,077	42,67
818,252	214,7
818,427	331,43
818,601	26,28
818,776	-115,03
818,95	138,92
819,125	315,05
819,299	32,43
819,474	79,53
819,648	143,02
819,823	335,53
819,997	140,97
820,172	-110,93
820,346	212,65
820,521	153,26
820,695	-6,49
820,87	-4,44
821,044	44,71
821,218	128,68
821,393	167,59
821,567	-112,98
821,741	126,63
821,916	77,48
822,09	65,19
822,264	-96,6
822,438	-90,45
822,613	112,3
822,787	20,14
822,961	-78,16
823,135	226,98
823,309	130,73
823,483	-55,64
823,658	3,75
823,832	317,09
824,006	-155,99
824,18	-43,35
824,354	-61,78
824,528	97,96
824,702	300,71
824,876	-80,21
825,05	85,67
825,224	255,65
825,398	163,5
825,572	-78,16
825,746	-186,71
825,92	421,54
826,093	46,76
826,267	65,19
826,441	-106,84
826,615	423,59
826,789	220,84
826,963	30,38
827,136	42,67
827,31	190,12
827,484	3,75
827,658	-49,49
827,831	-76,12
828,005	42,67
828,179	-29,01
828,353	1,71
828,526	16,04
828,7	198,31
828,873	-78,16
829,047	-76,12
829,221	-78,16
829,394	81,58
829,568	159,4
829,741	-129,36
829,915	-145,75
830,088	353,96
830,262	456,36
830,435	-172,37
830,609	44,71
830,782	153,26
830,956	159,4
831,129	87,72
831,302	-123,22
831,476	169,64
831,649	38,57
831,822	-14,68
831,996	-20,82
832,169	317,09
832,342	-53,59
832,516	-115,03
832,689	-115,03
832,862	157,35
833,035	317,09
833,209	120,49
833,382	1,71
833,555	-37,2
833,728	69,29
833,901	-98,64
834,074	-20,82
834,247	38,57
834,42	218,79
834,594	-59,73
834,767	11,95
834,94	206,5
835,113	290,47
835,286	-80,21
835,459	-16,73
835,632	204,46
835,805	-10,58
835,977	50,86
836,15	89,77
836,323	71,34
836,496	298,66
836,669	-55,64
836,842	-110,93
837,015	315,05
837,188	171,69
837,36	-22,87
837,533	-45,4
837,706	181,93
837,879	247,46
838,051	-135,51
838,224	-22,87
838,397	118,44
838,569	155,3
838,742	-125,27
838,915	-121,17
839,087	188,07
839,26	216,74
839,433	-22,87
839,605	171,69
839,778	-139,6
839,95	231,08
840,123	-6,49
840,295	-0,34
840,468	32,43
840,64	54,95
840,813	-0,34
840,985	9,9
841,158	120,49
841,33	128,68
841,502	-76,12
841,675	-26,96
841,847	378,53
842,019	128,68
842,192	-86,36
842,364	-51,54
842,536	83,63
842,709	89,77
842,881	-190,8
843,053	-43,35
843,225	89,77
843,398	298,66
843,57	-76,12
843,742	-115,03
843,914	224,94
844,086	433,83
844,258	-119,12
844,43	-14,68
844,602	310,95
844,775	75,43
844,947	-84,31
845,119	-121,17
845,291	345,77
845,463	386,72
845,635	-151,89
845,807	-45,4
845,979	192,17
846,15	71,34
846,322	-112,98
846,494	-158,03
846,666	11,95
846,838	253,61
847,01	-110,93
847,182	-80,21
847,354	155,3
847,525	171,69
847,697	-160,08
847,869	-184,66
848,041	186,02
848,212	337,57
848,384	-147,8
848,556	-31,06
848,727	157,35
848,899	-29,01
849,071	-72,02
849,242	83,63
849,414	239,27
849,585	138,92
849,757	-67,92
849,929	46,76
850,1	-6,49
850,272	333,48
850,443	18,09
850,615	22,19
850,786	192,17
850,958	44,71
851,129	-41,3
851,3	-6,49
851,472	177,83
851,643	42,67
851,815	-65,88
851,986	-8,53
852,157	110,25
852,329	548,51
852,5	-194,9
852,671	87,72
852,842	87,72
853,014	-49,49
853,185	-100,69
853,356	-133,46
853,527	210,6
853,698	241,32
853,87	-22,87
854,041	95,91
854,212	134,82
854,383	79,53
854,554	-72,02
854,725	-51,54
854,896	106,15
855,067	20,14
855,238	-100,69
855,409	-117,08
855,58	22,19
855,751	380,58
855,922	-63,83
856,093	579,23
856,264	-104,79
856,435	89,77
856,606	-63,83
856,777	13,99
856,948	50,86
857,118	-22,87
857,289	-84,31
857,46	128,68
857,631	155,3
857,802	32,43
857,972	-129,36
858,143	124,58
858,314	-24,92
858,484	-125,27
858,655	-180,56
858,826	-94,55
858,996	173,74
859,167	296,61
859,338	-139,6
859,508	-63,83
859,679	54,95
859,849	97,96
860,02	-135,51
860,19	-41,3
860,361	247,46
860,531	-53,59
860,702	-10,58
860,872	7,85
861,043	-18,77
861,213	259,75
861,384	-92,5
861,554	-67,92
861,724	-43,35
861,895	67,24
862,065	145,06
862,235	-35,16
862,406	179,88
862,576	89,77
862,746	-72,02
862,916	-82,26
863,087	347,81
863,257	75,43
863,427	-233,81
863,597	-59,73
863,767	288,42
863,937	-174,42
864,108	-55,64
864,278	-26,96
864,448	173,74
864,618	304,81
864,788	-223,57
864,958	-10,58
865,128	40,62
865,298	57
865,468	-170,32
865,638	-248,15
865,808	93,87
865,978	462,5
866,148	-190,8
866,318	-137,56
866,487	308,9
866,657	36,52
866,827	-29,01
866,997	-192,85
867,167	298,66
867,337	132,78
867,506	-139,6
867,676	-129,36
867,846	26,28
868,016	188,07
868,185	-248,15
868,355	-63,83
868,525	239,27
868,694	120,49
868,864	-108,88
869,034	-18,77
869,203	36,52
869,373	97,96
869,542	5,8
869,712	-125,27
869,881	149,16
870,051	-0,34
870,22	-123,22
870,39	-100,69
870,559	81,58
870,729	-235,86
870,898	-8,53
871,068	-102,74
871,237	50,86
871,406	-22,87
871,576	-104,79
871,745	-51,54
871,914	7,85
872,084	46,76
872,253	-125,27
872,422	-174,42
872,591	233,13
872,761	-94,55
872,93	124,58
873,099	-110,93
873,268	-26,96
873,437	-135,51
873,607	-207,19
873,776	-31,06
873,945	79,53
874,114	-90,45
874,283	-153,94
874,452	-4,44
874,621	165,54
874,79	190,12
874,959	-198,99
875,128	-92,5
875,297	67,24
875,466	274,09
875,635	-63,83
875,804	-117,08
875,973	-135,51
876,142	370,34
876,31	-123,22
876,479	-102,74
876,648	220,84
876,817	-106,84
876,986	-20,82
877,155	-55,64
877,323	-94,55
877,492	353,96
877,661	-55,64
877,829	-24,92
877,998	71,34
878,167	183,98
878,335	-119,12
878,504	-285,01
878,673	-37,2
878,841	-196,95
879,01	-92,5
879,178	-108,88
879,347	54,95
879,515	81,58
879,684	16,04
879,852	-186,71
880,021	46,76
880,189	44,71
880,358	-155,99
880,526	177,83
880,695	-74,07
880,863	251,56
881,031	-86,36
881,2	-211,28
881,368	-35,16
881,536	333,48
881,705	-123,22
881,873	-117,08
882,041	138,92
882,21	48,81
882,378	-117,08
882,546	-82,26
882,714	1,71
882,882	-18,77
883,05	-20,82
883,219	-88,4
883,387	30,38
883,555	-20,82
883,723	-278,87
883,891	-125,27
884,059	-53,59
884,227	149,16
884,395	-131,41
884,563	-22,87
884,731	-18,77
884,899	259,75
885,067	-82,26
885,235	-131,41
885,403	216,74
885,571	71,34
885,739	-274,77
