Data from Na 5_Subt6__0__13-55-54-585.txt Node

Date: Tue Feb 02 13:55:54 CET 2021
User: Praktikum
Spectrometer: USB4F03543
Trigger mode: 4
Integration Time (sec): 2,000000E-1
Scans to average: 9
Electric dark correction enabled: true
Nonlinearity correction enabled: false
Boxcar width: 0
XAxis mode: Wavelengths
Number of Pixels in Spectrum: 3648
>>>>>Begin Spectral Data<<<<<
179,969	393,91
180,181	393,91
180,394	393,91
180,606	375,25
180,819	335,89
181,031	-200,91
181,243	-232,54
181,456	150,2
181,668	199,13
181,88	-184,53
182,093	-58,92
182,305	194,58
182,518	213,46
182,73	-335,39
182,942	-175,42
183,155	190,02
183,367	240,31
183,579	-269,4
183,791	-184,3
184,004	177,51
184,216	164,31
184,428	-117,85
184,641	-158,58
184,853	238,72
185,065	223,48
185,277	-210,69
185,49	-185,21
185,702	198,67
185,914	137,92
186,126	-69,16
186,338	-157,45
186,551	302,89
186,763	155,66
186,975	-18,19
187,187	-168,37
187,399	224,84
187,612	276,72
187,824	-32,98
188,036	-148,57
188,248	158,85
188,46	266,25
188,672	-189,99
188,885	-78,94
189,097	273,54
189,309	180,24
189,521	-131,05
189,733	-253,25
189,945	284
190,157	215,74
190,369	-172,47
190,581	-40,26
190,794	201,18
191,006	222,56
191,218	-55,96
191,43	-146,07
191,642	185,47
191,854	202,09
192,066	-253,47
192,278	-130,82
192,49	266,94
192,702	101,96
192,914	-131,51
193,126	-110,34
193,338	279,91
193,55	306,08
193,762	-95,78
193,974	98,78
194,186	220,97
194,398	181,15
194,61	-57,55
194,822	-164,73
195,034	196,85
195,246	40,07
195,457	-124
195,669	-237,55
195,881	246,46
196,093	222,56
196,305	-141,97
196,517	51,9
196,729	286,51
196,941	169,32
197,153	-197,5
197,365	-268,49
197,576	232,35
197,788	216,42
198	-236,18
198,212	-368,84
198,424	221,43
198,636	230,07
198,847	26,42
199,059	-190,9
199,271	230,53
199,483	208
199,695	-111,71
199,906	-176,11
200,118	132,91
200,33	195,94
200,542	-237,32
200,753	-133,33
200,965	306,99
201,177	278,09
201,389	-140,61
201,6	23,23
201,812	166,36
202,024	198,22
202,235	7,53
202,447	-298,07
202,659	259,88
202,871	252,83
203,082	-149,71
203,294	-114,89
203,506	246,23
203,717	246
203,929	-150,85
204,141	24,82
204,352	274,45
204,564	109,24
204,775	-148,8
204,987	-278,05
205,199	248,05
205,41	142,92
205,622	-187,03
205,833	-180,43
206,045	206,64
206,257	119,26
206,468	-35,25
206,68	-72,12
206,891	214,6
207,103	139,51
207,314	-77,58
207,526	-222,75
207,737	263,07
207,949	134,27
208,16	-137,19
208,372	-104,88
208,583	196,4
208,795	195,94
209,006	-122,63
209,218	-222,53
209,429	212,78
209,641	160,22
209,852	-106,7
210,064	-208,42
210,275	252,37
210,487	145,2
210,698	-163,36
210,909	-217,07
211,121	232,58
211,332	235,31
211,544	-303,76
211,755	-270,31
211,966	187,29
212,178	182,06
212,389	-326,75
212,6	-112,85
212,812	103,33
213,023	270,12
213,234	-135,83
213,446	-210,24
213,657	220,06
213,868	271,94
214,08	-361,56
214,291	-169,73
214,502	218,01
214,714	161,81
214,925	-134,24
215,136	-99,65
215,347	137,01
215,559	153,62
215,77	29,15
215,981	-342,22
216,192	268,99
216,404	196,4
216,615	-244,6
216,826	-195,9
217,037	116,53
217,249	280,59
217,46	-314,69
217,671	-125,59
217,882	260,79
218,093	297,88
218,304	-220,48
218,516	-162,45
218,727	205,27
218,938	191,85
219,149	-297,39
219,36	-255,52
219,571	260,57
219,782	180,7
219,993	-311,5
220,205	-36,16
220,416	204,59
220,627	151,11
220,838	-185,66
221,049	-413,67
221,26	299,48
221,471	225,07
221,682	-144,7
221,893	-177,02
222,104	149,07
222,315	202,77
222,526	30,51
222,737	-133,78
222,948	248,28
223,159	196,17
223,37	-115,12
223,581	-62,1
223,792	227,34
224,003	155,89
224,214	2,07
224,425	-210,92
224,636	209,37
224,847	185,7
225,058	-129
225,269	-172,01
225,48	245,09
225,691	224,84
225,902	-201,59
226,112	-73,48
226,323	272,4
226,534	218,24
226,745	-135,37
226,956	-71,66
227,167	190,71
227,378	244,18
227,589	-50,73
227,799	-292,16
228,01	255,56
228,221	217,33
228,432	-131,05
228,643	-11,59
228,853	173,19
229,064	131,77
229,275	-118,08
229,486	-74,39
229,697	224,61
229,907	179,56
230,118	-113,98
230,329	98,55
230,54	230,07
230,75	186,38
230,961	-188,85
231,172	-101,01
231,383	202,31
231,593	229,16
231,804	59,87
232,015	-155,85
232,225	236,9
232,436	181,38
232,647	-243,01
232,857	-226,4
233,068	163,4
233,279	232,35
233,489	-128,55
233,7	-120,58
233,91	193,21
234,121	215,28
234,332	-141,97
234,542	-162,91
234,753	229,16
234,964	225,52
235,174	-87,59
235,385	-176,56
235,595	174,55
235,806	186,16
236,016	7,3
236,227	-120,81
236,437	255,1
236,648	267,62
236,858	-83,72
237,069	-25,92
237,279	191,85
237,49	238,95
237,7	-91
237,911	-164,27
238,121	177,28
238,332	190,48
238,542	-250,29
238,753	-64,61
238,963	257,61
239,174	215,28
239,384	-94,19
239,595	-61,42
239,805	232,35
240,015	146,56
240,226	-101,7
240,436	-145,84
240,647	290,38
240,857	173,41
241,067	-188,39
241,278	-478,98
241,488	256,7
241,698	175,23
241,909	-49,36
242,119	-190,9
242,329	166,36
242,54	234,17
242,75	-79,62
242,96	58,5
243,171	153,39
243,381	258,52
243,591	37,79
243,801	-207,74
244,012	108,33
244,222	187,07
244,432	47,8
244,642	103,33
244,853	261,02
245,063	169,55
245,273	-160,41
245,483	-189,3
245,694	135,87
245,904	216,42
246,114	-157,45
246,324	8,21
246,534	208,23
246,744	220,97
246,955	113,8
247,165	-243,23
247,375	69,42
247,585	225,3
247,795	-126,04
248,005	-209,78
248,215	294,47
248,425	179,33
248,636	-352,23
248,846	-36,84
249,056	299,48
249,266	249,64
249,476	-128,55
249,686	-118,08
249,896	222,56
250,106	136,78
250,316	-75,3
250,526	-278,96
250,736	265,12
250,946	150,66
251,156	-337,9
251,366	-93,05
251,576	200,26
251,786	263,3
251,996	-30,47
252,206	17,77
252,416	246,23
252,626	198,67
252,836	15,95
253,046	-91,68
253,256	251,01
253,466	227,34
253,676	-4,3
253,885	-191,12
254,095	185,25
254,305	176,37
254,515	-71,2
254,725	-64,61
254,935	205,5
255,145	200,49
255,355	-136,51
255,564	-60,28
255,774	234,4
255,984	4,8
256,194	-65,06
256,404	-47,54
256,614	237,13
256,823	210,28
257,033	-68,7
257,243	-139,47
257,453	353,86
257,662	211,19
257,872	-186,12
258,082	-79,4
258,292	162,95
258,501	279,23
258,711	-556,57
258,921	-238,46
259,131	195,49
259,34	139,28
259,55	-100,79
259,76	50,76
259,969	224,16
260,179	109,93
260,389	-78,26
260,598	-210,01
260,808	233,94
261,018	184,79
261,227	-166,55
261,437	82,85
261,647	309,26
261,856	197,08
262,066	-184,75
262,275	-370,66
262,485	259,43
262,694	186,38
262,904	-149,71
263,114	-209,1
263,323	197,53
263,533	230,53
263,742	-89,64
263,952	-115,58
264,161	215,97
264,371	182,74
264,58	-74,62
264,79	-36,16
264,999	-22,96
265,209	252,15
265,418	-88,95
265,628	-111,25
265,837	259,2
266,047	240,54
266,256	-265,53
266,466	-30,93
266,675	176,14
266,884	237,58
267,094	-154,26
267,303	-248,47
267,513	175,69
267,722	81,71
267,931	-129,69
268,141	-80,99
268,35	262,39
268,559	188,89
268,769	-9,99
268,978	67,37
269,187	209,82
269,397	191,85
269,606	102,64
269,815	-74,85
270,025	226,66
270,234	205,73
270,443	12,53
270,653	-47,77
270,862	318,36
271,071	267,62
271,28	-38,89
271,49	-153,58
271,699	145,2
271,908	156,57
272,117	-41,4
272,327	-114,89
272,536	237,13
272,745	164,54
272,954	-71,66
273,163	-205,69
273,372	21,64
273,582	85,12
273,791	-115,81
274	-43,44
274,209	29,6
274,418	124,49
274,627	-154,72
274,836	-67,11
275,046	-66,43
275,255	96,05
275,464	-11,59
275,673	74,66
275,882	39,84
276,091	158,4
276,3	-158,36
276,509	-62,56
276,718	114,25
276,927	1,84
277,136	-81,22
277,345	-88,27
277,554	36,65
277,763	69,42
277,972	-108,52
278,181	-56,19
278,39	79,89
278,599	45,98
278,808	40,52
279,017	-126,5
279,226	0,93
279,435	-58,01
279,644	-42,08
279,853	-68,02
280,062	-107,84
280,271	70,33
280,48	-83,49
280,688	-37,53
280,897	129,72
281,106	48,03
281,315	-29,34
281,524	-26,83
281,733	3,43
281,942	40,98
282,151	-90,09
282,359	-201,36
282,568	96,27
282,777	95,82
282,986	-96,69
283,195	-39,35
283,403	98,09
283,612	51,67
283,821	-40,94
284,03	-25,01
284,238	-90,09
284,447	102,19
284,656	-59,37
284,865	-20,23
285,073	90,13
285,282	43,71
285,491	-21,37
285,699	38,48
285,908	2,07
286,117	105,38
286,325	-111,71
286,534	-190,67
286,743	107,65
286,951	26,87
287,16	-165,41
287,369	-24,78
287,577	42,12
287,786	114,71
287,995	-24,33
288,203	12,53
288,412	-22,96
288,62	34,15
288,829	-43,22
289,037	88,31
289,246	58,95
289,455	158,4
289,663	-131,96
289,872	-210,92
290,08	-39,8
290,289	106,97
290,497	-16,36
290,706	-112,16
290,914	84,67
291,123	96,27
291,331	-19,55
291,54	-114,89
291,748	86,72
291,957	26,42
292,165	-95,78
292,373	78,07
292,582	74,66
292,79	2,07
292,999	-57,1
293,207	-93,5
293,415	62,37
293,624	86,26
293,832	-133,33
294,041	-78,03
294,249	74,2
294,457	162,26
294,666	-143,79
294,874	23,46
295,082	57,82
295,291	72,61
295,499	-45,95
295,707	-73,25
295,915	-16,59
296,124	61,91
296,332	-85,31
296,54	-59,6
296,749	-21,37
296,957	79,89
297,165	-39,58
297,373	-15,68
297,581	30,06
297,79	63,28
297,998	10,49
298,206	18
298,414	-2,94
298,622	119,03
298,831	-162,91
299,039	-31,16
299,247	-26,6
299,455	58,5
299,663	-191,58
299,871	-73,03
300,08	45,53
300,288	114,71
300,496	-112,62
300,704	-54,82
300,912	164,99
301,12	126,31
301,328	-121,27
301,536	-40,94
301,744	107,65
301,952	100,6
302,16	12,99
302,368	23
302,576	-17,5
302,784	-1,57
302,992	111,29
303,2	6,39
303,408	30,06
303,616	84,44
303,824	-78,94
304,032	-176,33
304,24	-83,27
304,448	-20,01
304,656	-20,69
304,864	-165,87
305,072	34,15
305,28	8,21
305,488	-42,99
305,696	-43,22
305,904	36,43
306,111	69,42
306,319	-59,83
306,527	-42,99
306,735	-47,99
306,943	2,52
307,151	-164,96
307,359	40,98
307,566	136,1
307,774	9,35
307,982	-155,4
308,19	0,47
308,398	53,72
308,605	73,97
308,813	12,53
309,021	-19,1
309,229	-3,85
309,436	116,3
309,644	-139,02
309,852	-152,44
310,06	28,46
310,267	42,8
310,475	-106,48
310,683	-11,36
310,89	36,43
311,098	50,76
311,306	-45,49
311,513	-205,23
311,721	108,79
311,929	4,34
312,136	-14,77
312,344	-38,66
312,552	-46,63
312,759	149,98
312,967	-135,15
313,174	-130,82
313,382	37,57
313,589	-0,66
313,797	-13,18
314,005	-151,99
314,212	85,12
314,42	71,93
314,627	-78,26
314,835	6,62
315,042	54,18
315,25	48,49
315,457	-53,91
315,665	139,74
315,872	33,92
316,08	233,49
316,287	-15
316,495	67,37
316,702	-29,11
316,909	154,3
317,117	-121,04
317,324	-69,38
317,532	-101,24
317,739	124,95
317,946	-17,5
318,154	-26,83
318,361	76,02
318,569	-145,84
318,776	48,26
318,983	89,9
319,191	45,98
319,398	-1,57
319,605	-73,71
319,813	-130,6
320,02	92,41
320,227	33,47
320,434	-104,88
320,642	-77,8
320,849	119,94
321,056	10,71
321,264	-7,72
321,471	-77,58
321,678	-14,54
321,885	166,81
322,092	-136,06
322,3	61,91
322,507	119,48
322,714	14,58
322,921	-12,95
323,128	-41,4
323,336	69,88
323,543	93,09
323,75	-77,12
323,957	-127,18
324,164	11,62
324,371	109,24
324,578	95,82
324,786	-77,8
324,993	70,79
325,2	-13,86
325,407	130,63
325,614	42,34
325,821	35,29
326,028	80,8
326,235	-32,75
326,442	-56,87
326,649	59,64
326,856	102,19
327,063	54,4
327,27	-80,76
327,477	81,26
327,684	148,61
327,891	-17,73
328,098	-75,07
328,305	69,19
328,512	155,66
328,719	-78,26
328,926	-27,51
329,133	270,35
329,34	165,45
329,546	294,02
329,753	421,67
329,96	659,01
330,167	524,07
330,374	342,71
330,581	262,39
330,788	399,15
330,995	154,3
331,201	43,71
331,408	3,43
331,615	131,77
331,822	17,09
332,029	-52,55
332,235	-40,94
332,442	8,21
332,649	93,77
332,856	27,55
333,062	-46,86
333,269	85,12
333,476	170,23
333,683	-15,45
333,889	-147,43
334,096	0,47
334,303	97,64
334,509	-55,05
334,716	-70,98
334,923	76,02
335,129	-33,66
335,336	34,15
335,543	-119,22
335,749	73,52
335,956	52,13
336,163	94,91
336,369	-107,61
336,576	151,11
336,782	17,31
336,989	43,71
337,196	-89,18
337,402	70,33
337,609	169,09
337,815	-10,9
338,022	-109,21
338,228	-41,4
338,435	155,21
338,641	-136,06
338,848	-101,47
339,054	58,73
339,261	148,61
339,467	56,68
339,674	-24,1
339,88	4,11
340,087	91,72
340,293	29,83
340,5	-3,17
340,706	-88,95
340,912	145,65
341,119	25,05
341,325	-76,21
341,532	28,01
341,738	137,46
341,944	-88,5
342,151	-75,98
342,357	5,94
342,563	-9,54
342,77	-80,76
342,976	115,62
343,182	130,86
343,389	60,09
343,595	-59,6
343,801	61,23
344,007	-19,1
344,214	172,28
344,42	-75,76
344,626	36,2
344,832	62,82
345,039	153,84
345,245	-64,38
345,451	-18,41
345,657	-26,15
345,864	91,95
346,07	-93,5
346,276	-18,19
346,482	50,99
346,688	-56,41
346,894	-3,62
347,1	-12,27
347,307	97,64
347,513	11,4
347,719	-80,08
347,925	-38,66
348,131	106,74
348,337	108,33
348,543	5,48
348,749	8,21
348,955	125,63
349,161	42,12
349,367	-118,31
349,573	-128,09
349,779	39,16
349,985	88,99
350,191	-24,78
350,397	-103,74
350,603	14,81
350,809	84,44
351,015	-88,95
351,221	-27,29
351,427	-53,68
351,633	-102,38
351,839	-159,27
352,045	-73,94
352,251	111,97
352,457	78,3
352,663	-102,15
352,869	-70,29
353,075	15,49
353,28	88,99
353,486	-30,25
353,692	-87,59
353,898	115,62
354,104	15,72
354,31	-142,66
354,515	28,92
354,721	96,73
354,927	96,05
355,133	-85,77
355,339	-16,14
355,544	164,77
355,75	-71,89
355,956	9,8
356,162	-122,4
356,367	246,69
356,573	-118,08
356,779	-8,4
356,984	-50,95
357,19	-2,94
357,396	68,06
357,602	-224,12
357,807	-78,49
358,013	76,7
358,218	117,66
358,424	3,89
358,63	10,94
358,835	63,73
359,041	101,28
359,247	-27,74
359,452	6,85
359,658	146,11
359,863	68,28
360,069	-96,46
360,274	-58,01
360,48	166,59
360,685	171,14
360,891	-108,75
361,097	-15,23
361,302	134,05
361,508	45,76
361,713	-34,57
361,918	-220,48
362,124	46,21
362,329	-50,73
362,535	-64,15
362,74	-29,11
362,946	117,44
363,151	81,48
363,357	-38,66
363,562	104,01
363,767	107,2
363,973	18,22
364,178	32,56
364,383	-52,55
364,589	16,63
364,794	94,45
365	-67,79
365,205	-46,17
365,41	55,54
365,615	77,39
365,821	66,24
366,026	-147,43
366,231	35,29
366,437	-58,46
366,642	63,51
366,847	-76,67
367,052	104,92
367,258	23,91
367,463	0,25
367,668	29,6
367,873	-32,98
368,078	34,15
368,284	176,83
368,489	-9,54
368,694	92,63
368,899	107,88
369,104	-228,67
369,309	-154,26
369,515	-44,81
369,72	69,42
369,925	78,98
370,13	-77,35
370,335	56
370,54	122,67
370,745	-140,84
370,95	-94,42
371,155	126,99
371,36	-7,95
371,565	-130,14
371,77	-122,86
371,975	127,68
372,18	101,05
372,385	-121,04
372,59	-75,98
372,795	57,82
373	99,46
373,205	-180,2
373,41	2,75
373,615	44,62
373,82	162,26
374,025	-118,31
374,23	79,66
374,435	147,93
374,64	101,73
374,845	-98,06
375,05	-16,82
375,254	89,9
375,459	66,69
375,664	58,5
375,869	-69,38
376,074	81,94
376,279	69,19
376,483	-155,63
376,688	-8,63
376,893	118,8
377,098	136,78
377,303	-110,57
377,507	-97,83
377,712	167,72
377,917	3,43
378,122	-95,78
378,326	-15
378,531	61,46
378,736	137,23
378,94	56
379,145	-44,81
379,35	20,5
379,554	96,73
379,759	-10,45
379,964	-102,61
380,168	148,84
380,373	71,24
380,578	-165,18
380,782	-420,04
380,987	-35,93
381,191	198,9
381,396	-111,48
381,601	-4,99
381,805	52,36
382,01	85,81
382,214	-85,31
382,419	-11,36
382,623	78,75
382,828	51,45
383,032	35,29
383,237	40,98
383,441	76,25
383,646	21,18
383,85	48,49
384,055	-171,78
384,259	161,35
384,464	128,59
384,668	-3,17
384,872	-69,38
385,077	27,78
385,281	75,57
385,486	37,34
385,69	-88,73
385,894	75,79
386,099	-7,72
386,303	-116,72
386,507	-175,2
386,712	-47,54
386,916	96,5
387,12	21,64
387,325	-134,69
387,529	36,65
387,733	-9,08
387,937	-53
388,142	4,11
388,346	81,94
388,55	73,52
388,754	-27,06
388,959	42,57
389,163	-57,1
389,367	117,66
389,571	-2,48
389,775	-108,98
389,98	68,74
390,184	-50,04
390,388	-90,55
390,592	-125,82
390,796	43,03
391	8,67
391,204	-75,53
391,409	16,63
391,613	77,16
391,817	134,5
392,021	-115,35
392,225	7,76
392,429	38,48
392,633	-8,63
392,837	-70,52
393,041	-4,76
393,245	-60,96
393,449	120,62
393,653	-31,61
393,857	-79,4
394,061	-81,22
394,265	103,1
394,469	-63,47
394,673	-199,09
394,877	4,11
395,081	99
395,285	-208,19
395,489	-46,86
395,693	88,08
395,896	95,59
396,1	-167
396,304	3,66
396,508	114,25
396,712	60,32
396,916	24,37
397,12	-52,09
397,323	135,41
397,527	-30,25
397,731	-206,6
397,935	-72,34
398,139	23
398,342	12,53
398,546	-12,72
398,75	-39,12
398,954	-1,57
399,157	-60,96
399,361	-117,4
399,565	-18,19
399,769	14,58
399,972	35,06
400,176	-20,69
400,38	-92,82
400,583	119,94
400,787	2,29
400,991	-126,5
401,194	-150,85
401,398	59,87
401,601	15,04
401,805	-126,73
402,009	-49,13
402,212	24,82
402,416	29,37
402,619	48,03
402,823	-239,82
403,026	105,15
403,23	20,5
403,433	-170,19
403,637	-117,63
403,841	47,58
404,044	-16,14
404,247	-20,01
404,451	-170,19
404,654	53,49
404,858	47,35
405,061	-68,47
405,265	-78,94
405,468	-4,99
405,672	51,22
405,875	-185,89
406,078	-11,13
406,282	57,59
406,485	110,84
406,689	-172,01
406,892	-219,8
407,095	58,04
407,299	89,9
407,502	-134,69
407,705	42,57
407,909	58,95
408,112	48,94
408,315	-149,48
408,518	-176,79
408,722	14,13
408,925	58,95
409,128	-175,42
409,331	-107,61
409,535	119,03
409,738	133,14
409,941	-233,68
410,144	-48,9
410,347	135,64
410,551	47,58
410,754	10,03
410,957	-115,81
411,16	92,63
411,363	60,55
411,566	-111,25
411,769	-46,4
411,973	66,69
412,176	89,67
412,379	-290,34
412,582	-131,73
412,785	-87,59
412,988	47,12
413,191	-95,78
413,394	-80,76
413,597	111,75
413,8	-16,59
414,003	-185,44
414,206	-21,6
414,409	27,33
414,612	44,39
414,815	-80,53
415,018	-47,99
415,221	113,11
415,424	-11,59
415,627	-98,06
415,83	5,94
416,033	39,16
416,235	175,46
416,438	-179,06
416,641	-240,05
416,844	123,12
417,047	163,86
417,25	21,41
417,453	-34,8
417,655	39,16
417,858	20,04
418,061	-102,38
418,264	-67,34
418,467	100,82
418,669	125,17
418,872	-113,76
419,075	138,83
419,278	203,91
419,48	67,15
419,683	62,82
419,886	123,81
420,089	92,86
420,291	124,49
420,494	53,04
420,697	-76,67
420,899	30,28
421,102	124,49
421,305	-145,16
421,507	-169,73
421,71	99,91
421,912	122,9
422,115	-30,25
422,318	-145,61
422,52	78,75
422,723	95,82
422,925	-144,7
423,128	-268,72
423,33	12,99
423,533	154,3
423,735	-122,4
423,938	-4,76
424,14	104,47
424,343	148,16
424,545	-201,82
424,748	-210,24
424,95	-30,47
425,153	72,15
425,355	-60,28
425,558	-185,66
425,76	79,66
425,962	-7,04
426,165	-25,24
426,367	-17,73
426,57	161,81
426,772	121,76
426,974	-135,83
427,177	-31,84
427,379	53,72
427,581	129,04
427,784	-1,8
427,986	-51,86
428,188	165,22
428,39	118,8
428,593	-60,05
428,795	-53,91
428,997	96,05
429,2	77,39
429,402	-115,58
429,604	52,36
429,806	71,47
430,008	-91,46
430,211	-110,8
430,413	6,62
430,615	49,85
430,817	119,94
431,019	-52,55
431,221	-120,81
431,423	3,2
431,626	6,62
431,828	-12,95
432,03	64,87
432,232	129,27
432,434	73,75
432,636	-3,17
432,838	65,33
433,04	-65,29
433,242	38,02
433,444	-71,66
433,646	-247,79
433,848	98,32
434,05	19,82
434,252	-15
434,454	-107,84
434,656	24,37
434,858	-61,19
435,06	-158,36
435,262	-309,45
435,464	-66,43
435,666	-148,8
435,868	-329,93
436,07	-248,7
436,271	32,56
436,473	55,09
436,675	-218,2
436,877	-236,18
437,079	31,88
437,281	41,66
437,482	-78,03
437,684	-24,56
437,886	-12,72
438,088	96,96
438,29	-156,76
438,491	-106,02
438,693	157,03
438,895	101,96
439,097	-200,68
439,298	-72,57
439,5	-31,38
439,702	85,58
439,903	-104,2
440,105	-65,52
440,307	43,03
440,508	-28,2
440,71	-104,88
440,912	-218,66
441,113	128,13
441,315	43,03
441,517	-55,96
441,718	-189,99
441,92	-7,72
442,121	-3,17
442,323	-82,13
442,524	34,61
442,726	-67,34
442,928	70,79
443,129	-74,62
443,331	-91,46
443,532	60,78
443,734	-36,62
443,935	-151,76
444,136	-37,53
444,338	78,52
444,539	54,18
444,741	-117,63
444,942	-179,97
445,144	-17,96
445,345	-96,46
445,546	21,41
445,748	-113,76
445,949	34,83
446,151	137,92
446,352	24,14
446,553	-312,41
446,755	86,49
446,956	63,73
447,157	-113,98
447,359	-164,73
447,56	39,39
447,761	192,07
447,962	-211,15
448,164	-139,7
448,365	29,83
448,566	115,84
448,767	-13,86
448,969	-226,17
449,17	30,51
449,371	28,24
449,572	-153,12
449,773	-73,03
449,974	78,98
450,176	6,39
450,377	-91,91
450,578	-194,99
450,779	7,3
450,98	125,86
451,181	-63,47
451,382	-98,28
451,583	-34,8
451,784	103,78
451,986	28,69
452,187	-205,23
452,388	66,24
452,589	-55,96
452,79	-127,18
452,991	-51,41
453,192	-35,48
453,393	-36,39
453,594	-155,63
453,795	35,29
453,995	68,97
454,196	98,78
454,397	0,47
454,598	91,04
454,799	129,27
455	86,49
455,201	54,63
455,402	-202,73
455,603	129,72
455,804	67,83
456,004	-45,95
456,205	-61,42
456,406	24,37
456,607	73,06
456,808	-288,97
457,008	5,48
457,209	55,54
457,41	44,85
457,611	-136,28
457,811	-350,64
458,012	23
458,213	49,85
458,414	-118,76
458,614	-85,31
458,815	6,62
459,016	87,63
459,216	-82,35
459,417	-75,3
459,618	-48,68
459,818	27,33
460,019	-2,03
460,22	-31,16
460,42	-5,21
460,621	-0,89
460,821	-73,94
461,022	-195,9
461,223	69,88
461,423	105,15
461,624	-146,52
461,824	-8,17
462,025	169,09
462,225	104,24
462,426	-198,41
462,626	4,57
462,827	-39,12
463,027	-73,71
463,228	-184,98
463,428	-189,99
463,628	84,9
463,829	-51,86
464,029	25,28
464,23	64,42
464,43	-7,26
464,63	48,94
464,831	55,09
465,031	-37,75
465,231	86,49
465,432	45,76
465,632	-388,18
465,832	128,36
466,033	151,11
466,233	72,38
466,433	-204,55
466,634	-91,46
466,834	15,04
467,034	148,16
467,234	-126,04
467,435	-50,73
467,635	75,34
467,835	11,17
468,035	-104,88
468,235	32,56
468,436	-45,04
468,636	88,31
468,836	107,42
469,036	-130,82
469,236	94,68
469,436	107,42
469,636	-232,99
469,836	21,41
470,037	52,13
470,237	140,42
470,437	-222,3
470,637	-128,09
470,837	-78,71
471,037	28,01
471,237	-92,59
471,437	-76,21
471,637	56
471,837	75,34
472,037	27,78
472,237	-126,04
472,437	34,15
472,637	56,22
472,837	-159,27
473,036	-78,71
473,236	193,67
473,436	67,83
473,636	-36,84
473,836	69,42
474,036	100,6
474,236	70,33
474,436	65,33
474,635	-153,58
474,835	60,32
475,035	93,32
475,235	-49,36
475,435	-74,39
475,634	23,46
475,834	-4,3
476,034	-184,53
476,234	52,13
476,433	74,43
476,633	-30,7
476,833	-120,81
477,033	-52,32
477,232	-56,87
477,432	76,7
477,632	-247,33
477,831	-128,09
478,031	53,04
478,231	73,29
478,43	-41,85
478,63	-75,98
478,829	216,88
479,029	-16,82
479,229	-54,37
479,428	52,81
479,628	42,34
479,827	-18,19
480,027	18,45
480,226	-290,11
480,426	51,9
480,625	175,92
480,825	-71,66
481,024	-49,81
481,224	-154,72
481,423	102,87
481,623	-242,1
481,822	1,84
482,021	63,28
482,221	21,41
482,42	-162
482,62	-10,45
482,819	-32,52
483,018	42,57
483,218	22,77
483,417	-111,94
483,616	29,83
483,816	13,44
484,015	-204,55
484,214	-62,56
484,414	30,97
484,613	163,4
484,812	-110,8
485,011	30,06
485,211	-82,58
485,41	-56,41
485,609	-54,14
485,808	-243,01
486,008	-2,71
486,207	52,36
486,406	-118,54
486,605	-121,27
486,804	-17,27
487,003	9,35
487,203	-126,5
487,402	46,89
487,601	-16,59
487,8	111,06
487,999	-58,92
488,198	-176,79
488,397	-94,64
488,596	159,31
488,795	-40,49
488,994	-139,02
489,193	31,65
489,392	-7,04
489,591	-72,12
489,79	-137,88
489,989	-23,65
490,188	90,58
490,387	-184,07
490,586	-173,15
490,785	2,07
490,984	-33,89
491,183	-147,66
491,382	-146,75
491,581	118,57
491,779	105,38
491,978	3,43
492,177	-48,9
492,376	152,71
492,575	170,68
492,774	36,88
492,972	136,1
493,171	37,57
493,37	116,53
493,569	-143,11
493,768	-219,11
493,966	37,57
494,165	96,27
494,364	-248,01
494,563	-247,33
494,761	35,29
494,96	4,57
495,159	-149,03
495,357	1,84
495,556	-5,67
495,755	-92,14
495,953	-108,75
496,152	12,76
496,35	203,91
496,549	361,83
496,748	159,99
496,946	292,42
497,145	497,22
497,343	608,95
497,542	453,99
497,74	63,28
497,939	273,31
498,137	277,18
498,336	-22,28
498,534	-72,8
498,733	121,3
498,931	121,08
499,13	126,77
499,328	5,71
499,527	144,51
499,725	103,78
499,924	-1,8
500,122	82,62
500,32	109,93
500,519	93,09
500,717	-73,94
500,915	1,61
501,114	-46,63
501,312	67,37
501,51	69,88
501,709	-65,52
501,907	0,93
502,105	139,96
502,304	-114,21
502,502	-88,73
502,7	-10,22
502,898	154,75
503,097	-72,12
503,295	-57,1
503,493	168,41
503,691	-34,57
503,889	87,63
504,088	80,57
504,286	147,25
504,484	126,99
504,682	-73,25
504,88	-52,77
505,078	-29,11
505,276	73,06
505,474	-217,29
505,672	15,72
505,871	111,97
506,069	246,46
506,267	-56,87
506,465	-143,57
506,663	134,96
506,861	59,18
507,059	-110,34
507,257	-155,17
507,455	85,58
507,653	73,06
507,851	-75,53
508,049	16,86
508,246	-55,96
508,444	74,43
508,642	-38,89
508,84	-122,18
509,038	49,85
509,236	146,33
509,434	-51,18
509,632	-162,91
509,829	106,97
510,027	110,61
510,225	-169,73
510,423	45,3
510,621	66,92
510,818	88,08
511,016	-93,73
511,214	-75,07
511,412	42,57
511,609	122,21
511,807	-119,9
512,005	2,98
512,203	21,86
512,4	19,82
512,598	-99,42
512,796	-5,9
512,993	-1,8
513,191	136,32
513,389	-25,92
513,586	38,93
513,784	240,09
513,981	294,47
514,179	-42,31
514,377	67,6
514,574	145,88
514,772	283,78
514,969	-111,03
515,167	80,34
515,364	88,54
515,562	182,97
515,759	-261,44
515,957	-5,44
516,154	168,18
516,352	6,16
516,549	-154,03
516,746	-25,47
516,944	52,58
517,141	124,03
517,339	30,06
517,536	-68,93
517,733	91,95
517,931	156,12
518,128	-40,94
518,325	27,33
518,523	117,44
518,72	53,95
518,917	-93,96
519,115	-127,41
519,312	12,31
519,509	38,25
519,707	50,54
519,904	-0,66
520,101	35,29
520,298	10,26
520,495	-149,48
520,693	133,36
520,89	213,24
521,087	65,55
521,284	-235,95
521,481	105,15
521,678	48,49
521,876	137,46
522,073	-132,19
522,27	-31,84
522,467	21,18
522,664	171,59
522,861	-92,82
523,058	-116,94
523,255	109,93
523,452	124,72
523,649	7,53
523,846	9,8
524,043	79,89
524,24	137,01
524,437	-116,26
524,634	-11,36
524,831	114,93
525,028	76,7
525,225	41,21
525,422	-122,4
525,619	92,86
525,816	36,65
526,013	-299,89
526,209	-118,31
526,406	48,94
526,603	33,47
526,8	111,75
526,997	-116,72
527,194	72,38
527,39	103,33
527,587	83,76
527,784	-96,92
527,981	58,27
528,177	94,23
528,374	-100,79
528,571	-229,35
528,768	180,47
528,964	193,21
529,161	24,82
529,358	-169,05
529,554	179,56
529,751	115,84
529,948	162,04
530,144	-10,68
530,341	117,44
530,537	148,38
530,734	-67,11
530,931	-101,24
531,127	53,72
531,324	116,98
531,52	-74,39
531,717	60,78
531,913	-4,08
532,11	132,68
532,306	-65,29
532,503	121,53
532,699	129,04
532,896	174,78
533,092	-93,5
533,289	108,33
533,485	265,8
533,682	78,75
533,878	-139,47
534,074	-42,31
534,271	95,82
534,467	163,17
534,664	-47,77
534,86	-29,79
535,056	109,47
535,253	210,05
535,449	-102,83
535,645	-18,19
535,841	14,58
536,038	121,76
536,234	26,42
536,43	-162,45
536,626	194,35
536,823	121,99
537,019	23
537,215	-61,42
537,411	210,28
537,607	154,53
537,804	20,27
538	-16,14
538,196	97,64
538,392	17,31
538,588	-149,26
538,784	-89,18
538,98	54,63
539,176	131,32
539,373	-139,47
539,569	-107,39
539,765	56,45
539,961	-63,24
540,157	-183,62
540,353	-142,66
540,549	64,64
540,745	4,57
540,941	-159,5
541,137	-205,46
541,333	-149,26
541,528	-177,47
541,724	-307,18
541,92	-314,69
542,116	-136,51
542,312	-294,89
542,508	-281,92
542,704	-401,84
542,9	-194,77
543,096	-158,13
543,291	-403,89
543,487	-371,12
543,683	-150,85
543,879	-5,9
544,075	-339,49
544,27	-361,56
544,466	-299,67
544,662	-294,66
544,858	-415,04
545,053	-492,86
545,249	-284,65
545,445	-35,02
545,64	-239,14
545,836	-221,16
546,032	-56,19
546,227	5,71
546,423	-344,27
546,619	-239,14
546,814	19,82
547,01	-34,34
547,205	-90,55
547,401	-95,78
547,597	11,17
547,792	139,74
547,988	-319,92
548,183	-50,04
548,379	-2,03
548,574	17,31
548,77	-112,85
548,965	-120,36
549,161	96,73
549,356	131,32
549,552	-170,65
549,747	-171,33
549,942	29,83
550,138	26,64
550,333	-63,01
550,529	-63,01
550,724	90,36
550,919	125,63
551,115	-71,43
551,31	-256,43
551,505	88,54
551,701	58,27
551,896	-186,35
552,091	-164,05
552,287	168,18
552,482	145,88
552,677	-22,74
552,872	50,08
553,067	150,2
553,263	54,18
553,458	57,59
553,653	-152,44
553,848	33,7
554,043	16,86
554,239	-13,18
554,434	-22,28
554,629	257,84
554,824	226,89
555,019	16,4
555,214	46,21
555,409	116,07
555,604	132
555,799	-2,03
555,994	8,21
556,189	122,21
556,384	231,89
556,579	-50,5
556,774	-82,13
556,969	270,35
557,164	185,25
557,359	-70,29
557,554	-10,9
557,749	252,6
557,944	226,43
558,139	-45,95
558,334	73,52
558,529	227,8
558,724	280,82
558,918	22,77
559,113	146,56
559,308	314,95
559,503	265,34
559,698	178,87
559,893	165,45
560,087	239,4
560,282	444,43
560,477	-67,34
560,672	143,15
560,866	299,93
561,061	404,83
561,256	106,51
561,45	135,18
561,645	234,17
561,84	419,63
562,034	138,6
562,229	218,92
562,424	436,92
562,618	357,5
562,813	221,65
563,008	394,14
563,202	372,29
563,397	491,76
563,591	242,36
563,786	268,76
563,98	491,53
564,175	464,68
564,369	248,28
564,564	128,36
564,758	563,89
564,953	449,21
565,147	301,75
565,342	419,85
565,536	609,4
565,731	646,04
565,925	387,09
566,119	705,66
566,314	1221,97
566,508	1948,32
566,703	2336,3
566,897	3458,81
567,091	4535,13
567,286	5449,21
567,48	5572,77
567,674	5368,2
567,868	5299,71
568,063	4525,57
568,257	3198,95
568,451	2596,16
568,646	2176,55
568,84	1794,95
569,034	1459,54
569,228	1112,29
569,422	1211,51
569,616	1145,74
569,811	974,17
570,005	618,73
570,199	935,26
570,393	863,81
570,587	529,08
570,781	643,76
570,975	879,05
571,169	713,39
571,364	287,87
571,558	312,22
571,752	612,59
571,946	705,66
572,14	385,49
572,334	355
572,528	638,08
572,722	648,31
572,916	405,74
573,109	340,89
573,303	720,9
573,497	728,87
573,691	298,57
573,885	469,23
574,079	699,06
574,273	649,45
574,467	415,53
574,661	496,08
574,854	661,74
575,048	646,72
575,242	410,98
575,436	437,15
575,63	711,57
575,823	536,59
576,017	463,32
576,211	565,26
576,405	696,56
576,598	736,83
576,792	489,48
576,986	398,24
577,18	746,39
577,373	664,02
577,567	479,02
577,761	512,47
577,954	683,59
578,148	643,99
578,341	544,78
578,535	458,31
578,729	791,45
578,922	776,65
579,116	578,46
579,309	593,93
579,503	681,77
579,696	763,68
579,89	409,16
580,083	570,72
580,277	824,21
580,47	982,59
580,664	756,86
580,857	1062,91
581,051	1301,84
581,244	1475,01
581,437	1494,13
581,631	1500,04
581,824	1783,34
582,018	1764,91
582,211	1822,48
582,404	1717,81
582,598	1843,87
582,791	1681,63
582,984	1460,9
583,178	1271,12
583,371	1552,83
583,564	1621,56
583,757	1345,31
583,951	1357,82
584,144	1696,87
584,337	1693,23
584,53	1564,89
584,723	1781,07
584,917	2064,37
585,11	2151,52
585,303	2067,78
585,496	2188,61
585,689	2820,3
585,882	3398,51
586,075	4528,08
586,268	8525,71
586,462	20247,15
586,655	62472,85
586,848	62591,41
587,041	64010,42
587,234	64143,54
587,427	63985,84
587,62	64059,57
587,813	64043,19
588,006	63965,36
588,199	64131,25
588,392	63858,87
588,585	63987,89
588,777	64254,13
588,97	64241,84
589,163	63598,78
589,356	63723,7
589,549	64153,78
589,742	64280,75
589,935	64190,64
590,128	64116,91
590,32	64178,35
590,513	64192,69
590,706	64002,23
590,899	64258,22
591,092	64176,31
591,284	64276,66
591,477	63971,51
591,67	63932,6
591,863	64157,87
592,055	64340,14
592,248	63711,42
592,441	63903,93
592,633	64233,65
592,826	64219,31
593,019	64051,38
593,211	63830,2
593,404	64299,18
593,596	64260,27
593,789	64061,62
593,982	63969,46
594,174	64356,53
594,367	64311,47
594,559	63994,04
594,752	64329,9
594,944	64313,52
595,137	64258,22
595,329	64045,24
595,522	63973,56
595,714	64325,81
595,907	64192,69
596,099	64094,39
596,292	64157,87
596,484	64338,1
596,676	64309,42
596,869	63856,82
597,061	63701,18
597,253	64319,66
597,446	64299,18
597,638	64098,48
597,83	64059,57
598,023	64321,71
598,215	64469,17
598,407	64086,19
598,6	64305,33
598,792	64211,12
598,984	64239,79
599,176	64086,19
599,369	63875,25
599,561	64239,79
599,753	64409,77
599,945	63817,91
600,137	64207,03
600,329	64207,03
600,522	64379,05
600,714	64241,84
600,906	64288,94
601,098	64209,07
601,29	64426,16
601,482	64094,39
601,674	64061,62
601,866	64264,37
602,058	64329,9
602,25	63953,08
602,442	63822,01
602,634	64372,91
602,826	64319,66
603,018	64084,15
603,21	63922,36
603,402	64280,75
603,594	64370,86
603,786	64028,85
603,978	63799,48
604,17	64438,45
604,362	64295,09
604,554	63889,59
604,745	63928,5
604,937	64239,79
605,129	64270,51
605,321	64155,83
605,513	64143,54
605,704	64352,43
605,896	64211,12
606,088	64022,71
606,28	64102,58
606,471	64049,33
606,663	64297,14
606,855	64325,81
607,047	63989,94
607,238	64293,04
607,43	64186,55
607,622	63717,56
607,813	63985,84
608,005	64247,98
608,197	63996,08
608,388	63912,12
608,58	63989,94
608,771	63912,12
608,963	63971,51
609,154	63695,03
609,346	63498,43
609,537	63502,52
609,729	63453,37
609,921	62734,54
610,112	62678,1
610,303	54022,48
610,495	522,93
610,686	-113,98
610,878	197,53
611,069	297,88
611,261	244,41
611,452	146,33
611,643	84,9
611,835	248,05
612,026	295,38
612,217	-7,26
612,409	130,41
612,6	339,98
612,791	330,65
612,983	28,01
613,174	-17,05
613,365	435,33
613,557	462,18
613,748	385,72
613,939	504,05
614,13	976,22
614,321	1234,94
614,513	907,27
614,704	981
614,895	1276,13
615,086	1192,85
615,277	830,13
615,468	676,76
615,659	719,08
615,851	708,39
616,042	290,38
616,233	200,26
616,424	382,08
616,615	355
616,806	258,06
616,997	286,73
617,188	420,54
617,379	316,32
617,57	-15,68
617,761	48,26
617,952	236,9
618,143	263,52
618,334	69,88
618,524	74,66
618,715	246,46
618,906	342,26
619,097	51,9
619,288	306,08
619,479	175,92
619,67	281,96
619,86	194,35
620,051	22,32
620,242	191,85
620,433	215,74
620,624	20,95
620,814	-4,3
621,005	241
621,196	165,9
621,386	-20,46
621,577	27,33
621,768	363,65
621,958	207,09
622,149	115,62
622,34	34,15
622,53	277,4
622,721	189,8
622,912	-50,5
623,102	24,37
623,293	250,1
623,483	259,88
623,674	-62,56
623,864	44,85
624,055	193,21
624,245	204,82
624,436	206,41
624,626	153,39
624,817	298,57
625,007	294,47
625,198	157,49
625,388	68,97
625,579	287,42
625,769	335,2
625,959	-40,03
626,15	-31,16
626,34	181,83
626,531	177,96
626,721	-17,73
626,911	156,12
627,101	336,11
627,292	316,54
627,482	56
627,672	81,94
627,863	259,43
628,053	201,63
628,243	-41,85
628,433	217,33
628,623	308,58
628,814	374,57
629,004	16,4
629,194	97,87
629,384	135,87
629,574	308,81
629,764	-178,15
629,955	-64,15
630,145	69,42
630,335	197,31
630,525	194,58
630,715	-40,49
630,905	207,55
631,095	214,15
631,285	26,42
631,475	152,71
631,665	252,83
631,855	304,94
632,045	129,04
632,235	148,84
632,425	228,94
632,615	385,26
632,805	-35,71
632,994	38,25
633,184	146,33
633,374	344,53
633,564	40,3
633,754	41,21
633,944	268,76
634,133	197,76
634,323	25,28
634,513	4,34
634,703	375,25
634,893	267,39
635,082	-22,05
635,272	95,59
635,462	267,17
635,651	314,95
635,841	-32,29
636,031	33,24
636,221	215,74
636,41	292,42
636,6	143,83
636,789	-29,34
636,979	299,93
637,169	192,76
637,358	172,5
637,548	-3,62
637,737	191,39
637,927	224,61
638,116	139,28
638,306	64,19
638,495	209,82
638,685	368,43
638,874	127,45
639,064	-50,04
639,253	229,62
639,443	256,7
639,632	119,94
639,822	155,66
640,011	165,68
640,2	251,46
640,39	-71,43
640,579	18,45
640,768	289,01
640,958	245,09
641,147	180,47
641,336	72,38
641,526	132,23
641,715	170,91
641,904	-72,12
642,093	143,38
642,283	170
642,472	155,21
642,661	127,68
642,85	-84,18
643,039	299,71
643,228	252,15
643,418	-22,51
643,607	7,07
643,796	76,7
643,985	204,13
644,174	-15,91
644,363	-50,5
644,552	180,92
644,741	194,58
644,93	71,93
645,119	-55,73
645,308	212,55
645,497	133,59
645,686	-152,21
645,875	99
646,064	149,75
646,253	203,45
646,442	-124,91
646,631	62,14
646,82	137,92
647,009	117,66
647,198	29,37
647,387	143,38
647,575	230,98
647,764	337,93
647,953	-2,03
648,142	-19,32
648,331	357,05
648,519	257,15
648,708	-58,46
648,897	62,14
649,086	213,92
649,274	233,26
649,463	89,45
649,652	-231,86
649,84	103,33
650,029	221,88
650,218	-24,78
650,406	-42,53
650,595	255,33
650,784	253,97
650,972	-25,24
651,161	-32,75
651,349	232,58
651,538	54,63
651,726	-12,72
651,915	-88,04
652,104	168,86
652,292	244,18
652,481	-84,63
652,669	-216,84
652,857	246,69
653,046	170,46
653,234	-28,2
653,423	-193,17
653,611	167,72
653,8	243,73
653,988	-38,66
654,176	103,33
654,365	197,31
654,553	111,97
654,741	-92,14
654,93	28,69
655,118	178,19
655,306	162,95
655,494	77,16
655,683	34,83
655,871	249,19
656,059	143,6
656,247	98,78
656,436	-7,72
656,624	26,87
656,812	175,46
657	76,93
657,188	-178,84
657,376	239,18
657,564	16,63
657,753	3,89
657,941	89,67
658,129	113,34
658,317	169,09
658,505	94,23
658,693	81,26
658,881	248,73
659,069	106,74
659,257	46,89
659,445	-55,5
659,633	42,12
659,821	218,92
660,009	-48,68
660,197	63,96
660,384	126,54
660,572	245,32
660,76	-159,5
660,948	-26,38
661,136	178,42
661,324	209,82
661,512	-113,98
661,699	17,09
661,887	175,46
662,075	84,9
662,263	-8,17
662,451	14,13
662,638	221,88
662,826	228,03
663,014	-198,86
663,201	-66,43
663,389	234,85
663,577	157,94
663,764	-130,82
663,952	26,87
664,14	64,42
664,327	151,34
664,515	-61,65
664,702	-94,19
664,89	264,21
665,078	222,56
665,265	17,31
665,453	-61,88
665,64	212,78
665,828	121,76
666,015	-18,64
666,203	7,76
666,39	182,74
666,578	133,59
666,765	-20,01
666,952	-331,75
667,14	68,97
667,327	121,76
667,515	-81,44
667,702	-40,03
667,889	170,68
668,077	220,97
668,264	-202,96
668,451	-115,12
668,638	194,8
668,826	246,23
669,013	-83,49
669,2	-165,18
669,388	250,33
669,575	97,64
669,762	128,81
669,949	-127,64
670,136	-2978,64
670,323	171,59
670,511	-119,22
670,698	-21,83
670,885	106,29
671,072	183,43
671,259	-185,21
671,446	25,96
671,633	78,52
671,82	188,66
672,007	22,55
672,194	-100,79
672,381	170,68
672,568	239,86
672,755	-39,35
672,942	-136,74
673,129	227,57
673,316	210,05
673,503	-40,49
673,69	11,85
673,877	232,12
674,064	205,73
674,251	-73,94
674,437	-65,74
674,624	52,58
674,811	197,08
674,998	66,69
675,185	-21,6
675,372	102,42
675,558	142,47
675,745	-71,89
675,932	-149,48
676,119	146,11
676,305	27,1
676,492	-138,11
676,679	-64,83
676,865	133,59
677,052	103,56
677,239	67,6
677,425	-33,43
677,612	256,7
677,798	120,39
677,985	-92,59
678,172	-118,76
678,358	166,36
678,545	101,73
678,731	-72,34
678,918	12,53
679,104	151,57
679,291	280,59
679,477	111,06
679,664	-68,7
679,85	223,02
680,036	154,75
680,223	-18,41
680,409	34,83
680,596	188,2
680,782	50,76
680,968	-152,21
681,155	-11,59
681,341	121,3
681,527	136,1
681,714	6,85
681,9	42,12
682,086	212,55
682,272	67,83
682,459	35,97
682,645	-222,98
682,831	173,41
683,017	168,86
683,204	-218,2
683,39	-24,78
683,576	183,2
683,762	234,4
683,948	-93,05
684,134	86,49
684,32	111,06
684,506	123,12
684,693	-151,08
684,879	155,66
685,065	171,82
685,251	192,98
685,437	30,97
685,623	-85,77
685,809	144,06
685,995	245,09
686,181	-109,21
686,366	-22,05
686,552	107,42
686,738	209,37
686,924	-106,7
687,11	-28,43
687,296	141,78
687,482	222,56
687,668	141,33
687,853	116,75
688,039	121,76
688,225	155,21
688,411	-34,8
688,597	-170,19
688,782	121,76
688,968	277,63
689,154	-141,97
689,34	-285,33
689,525	248,28
689,711	253,74
689,897	-364,97
690,082	-24,33
690,268	171,82
690,454	259,88
690,639	-70,52
690,825	-213,2
691,01	85,58
691,196	244,87
691,381	-173,6
691,567	-51,18
691,753	179,1
691,938	214,83
692,124	79,66
692,309	50,08
692,494	112,66
692,68	125,17
692,865	-19,32
693,051	-158,81
693,236	226,43
693,422	216,42
693,607	66,92
693,792	-41,85
693,978	255,79
694,163	617,37
694,348	916,6
694,534	1674,8
694,719	2821,66
694,904	3461,54
695,089	3509,33
695,275	3506,6
695,46	3394,41
695,645	2527,9
695,83	1889,38
696,016	1459,31
696,201	1306,4
696,386	1034,47
696,571	577,77
696,756	596,21
696,941	621,69
697,126	594,39
697,311	368,43
697,497	170,23
697,682	354,77
697,867	371,61
698,052	107,2
698,237	-150,39
698,422	160,22
698,607	261,02
698,792	-40,71
698,977	-70,29
699,162	106,06
699,347	280,36
699,531	-71,2
699,716	-96,69
699,901	107,2
700,086	196,85
700,271	-50,27
700,456	-218,66
700,641	200,49
700,825	143,15
701,01	-219,57
701,195	-75,07
701,38	145,88
701,565	351,13
701,749	-54,37
701,934	109,47
702,119	268,08
702,303	186,61
702,488	-139,93
702,673	-236,64
702,857	45,98
703,042	149,52
703,227	-152,44
703,411	-49,81
703,596	95,82
703,78	128,13
703,965	24,82
704,15	26,87
704,334	347,72
704,519	803,51
704,703	1216,74
704,888	1655,92
705,072	2159,94
705,257	2311,95
705,441	2255,06
705,625	1549,65
705,81	1629,97
705,994	1347,13
706,179	723,18
706,363	640,35
706,547	808,28
706,732	618,51
706,916	280,14
707,1	279,23
707,285	381,85
707,469	428,5
707,653	43,03
707,837	82,85
708,022	289,24
708,206	313,81
708,39	94,91
708,574	-86,68
708,759	205,95
708,943	271,49
709,127	-158,58
709,311	-155,85
709,495	180,92
709,679	142,47
709,863	-103,74
710,047	-78,49
710,231	143,15
710,415	186,16
710,6	-225,03
710,784	2,75
710,968	36,88
711,152	187,07
711,336	-18,41
711,519	-98,51
711,703	41,66
711,887	116,98
712,071	-67,11
712,255	52,81
712,439	90,36
712,623	259,66
712,807	88,31
712,991	66,24
713,174	413,03
713,358	310,63
713,542	91,72
713,726	109,24
713,91	326,33
714,093	375,25
714,277	40,75
714,461	-132,87
714,645	209,37
714,828	236,45
715,012	29,15
715,196	65,33
715,379	166,81
715,563	120,85
715,747	-116,72
715,93	-110,57
716,114	124,26
716,297	227,12
716,481	-4,3
716,664	-102,38
716,848	182,06
717,031	145,88
717,215	56
717,398	-93,28
717,582	141,78
717,765	79,89
717,949	-17,27
718,132	-65,52
718,316	155,89
718,499	198,44
718,682	-204,1
718,866	13,22
719,049	201,4
719,233	124,49
719,416	-102,61
719,599	-245,74
719,782	176,6
719,966	168,86
720,149	-27,51
720,332	-197,95
720,515	143,6
720,699	182,29
720,882	-93,05
721,065	17,09
721,248	221,88
721,431	241,68
721,615	-19,55
721,798	-150,85
721,981	87,63
722,164	217,1
722,347	-88,04
722,53	-222,75
722,713	167,27
722,896	135,41
723,079	-118,31
723,262	-162,68
723,445	118,35
723,628	178,42
723,811	-24,78
723,994	-16,36
724,177	160,9
724,36	144,51
724,543	-71,89
724,726	78,3
724,909	292,65
725,091	326,56
725,274	460,36
725,457	673,35
725,64	930,93
725,823	943,45
726,006	702,93
726,188	641,49
726,371	537,27
726,554	550,47
726,737	277,4
726,919	165,9
727,102	350,9
727,285	379,8
727,467	75,57
727,65	-29,34
727,833	345,9
728,015	236,45
728,198	1,84
728,38	-21,37
728,563	160,22
728,746	181,61
728,928	-25,69
729,111	18,45
729,293	180,7
729,476	121,99
729,658	-84,18
729,841	-9,08
730,023	125,63
730,205	215,51
730,388	-111,03
730,57	-118,31
730,753	153,39
730,935	258,52
731,117	-197,95
731,3	-33,43
731,482	200,04
731,664	120,85
731,847	-60,51
732,029	-147,89
732,211	126,77
732,394	205,95
732,576	-77,58
732,758	-227,31
732,94	112,66
733,122	199,13
733,305	-229,81
733,487	-15,91
733,669	136,1
733,851	204,82
734,033	-88,5
734,215	-78,71
734,397	132
734,58	132,68
734,762	-69,38
734,944	-69,38
735,126	143,6
735,308	248,96
735,49	133,36
735,672	22,77
735,854	396,41
736,036	844,24
736,218	1068,6
736,399	2111,25
736,581	3157,3
736,763	3768,96
736,945	3633,8
737,127	3684,09
737,309	3392,59
737,491	2531,76
737,672	1862,53
737,854	1433,6
738,036	1285,69
738,218	1097,73
738,4	870,86
738,581	425,31
738,763	485,39
738,945	477,2
739,127	87,17
739,308	-15
739,49	173,19
739,672	244,18
739,853	-139,24
740,035	65,55
740,216	265,8
740,398	289,01
740,58	-18,64
740,761	-15,45
740,943	70,79
741,124	168,41
741,306	-59,14
741,487	-65,29
741,669	169,09
741,85	117,21
742,032	-107,61
742,213	20,73
742,394	120,85
742,576	259,66
742,757	-207,74
742,939	-224,12
743,12	138,14
743,301	211,41
743,483	51,67
743,664	-71,2
743,845	138,83
744,027	244,87
744,208	-13,63
744,389	-61,19
744,57	226,66
744,752	145,42
744,933	-30,47
745,114	10,49
745,295	177,96
745,476	91,27
745,657	-11,81
745,839	0,47
746,02	226,66
746,201	233,26
746,382	-104,43
746,563	-206,37
746,744	91,72
746,925	194,8
747,106	-33,43
747,287	-205,23
747,468	234,17
747,649	154,53
747,83	84,44
748,011	308,58
748,192	1323,23
748,373	1963,57
748,554	2597,3
748,735	2960,47
748,915	3616,28
749,096	3715,94
749,277	3664,97
749,458	3820,39
749,639	4481,66
749,82	4618,19
750	4393,59
750,181	3827,45
750,362	3510,24
750,543	2615,28
750,723	1852,75
750,904	1485,02
751,085	1287,74
751,265	958,7
751,446	564,58
751,627	377,53
751,807	432,14
751,988	327,01
752,169	14,58
752,349	105,6
752,53	225,3
752,71	207,55
752,891	-207,74
753,071	-34,11
753,252	210,5
753,432	233,03
753,613	-4,76
753,793	-31,84
753,974	245,55
754,154	165,45
754,334	-56,41
754,515	166,13
754,695	81,94
754,876	174,32
755,056	-293,75
755,236	-47,54
755,417	135,87
755,597	245,09
755,777	-105,34
755,957	-115,81
756,138	159,08
756,318	214,83
756,498	-41,62
756,678	-40,49
756,859	38,25
757,039	131,32
757,219	-63,01
757,399	-20,69
757,579	219,15
757,759	242,82
757,939	106,29
758,119	-298,76
758,3	281,5
758,48	197,31
758,66	5,94
758,84	41,43
759,02	129,04
759,2	262,61
759,38	-75,07
759,56	-151,3
759,74	145,42
759,919	158,4
760,099	-125,13
760,279	-97,37
760,459	75,57
760,639	216,88
760,819	169,32
760,999	1264,98
761,178	3548,47
761,358	6937,63
761,538	10889,07
761,718	14319,19
761,898	16495,5
762,077	17393,87
762,257	15943,91
762,437	13374,17
762,616	10594,16
762,796	7874,91
762,976	5910,46
763,155	4285,51
763,335	3342,76
763,515	2347,67
763,694	1316,86
763,874	1005,34
764,053	1093,86
764,233	1420,4
764,413	1741,25
764,592	2257,11
764,772	2949,55
764,951	3387,13
765,131	3153,21
765,31	2743,84
765,489	2380,44
765,669	1930,12
765,848	1180,79
766,028	1055,86
766,207	809,88
766,386	642,85
766,566	413,25
766,745	215,74
766,924	169,09
767,104	330,2
767,283	206,41
767,462	116,53
767,642	699,29
767,821	1110,25
768	1465,68
768,179	1583,55
768,358	1929,21
768,538	2035,47
768,717	1571,27
768,896	1262,93
769,075	1135,96
769,254	935,49
769,433	473,55
769,612	248,51
769,791	701,79
769,97	1011,94
770,149	1704,16
770,328	3103,83
770,507	4566,76
770,686	5652,41
770,865	5861,99
771,044	5931,62
771,223	5481,98
771,402	4235,9
771,581	2906,09
771,76	2251,19
771,939	1643,17
772,118	1316,18
772,297	670,61
772,475	530,67
772,654	573
772,833	583,23
773,012	-97,15
773,191	-96,24
773,369	224,16
773,548	234,85
773,727	201,18
773,906	-171,56
774,084	170,23
774,263	222,11
774,442	-23,19
774,62	32,1
774,799	153,39
774,977	69,88
775,156	-109,21
775,335	-103,52
775,513	192,98
775,692	220,97
775,87	-295,34
776,049	-27,97
776,227	228,03
776,406	258,29
776,584	-7,26
776,763	-182,71
776,941	206,64
777,119	144,06
777,298	68,74
777,476	-221,84
777,655	246
777,833	258,97
778,011	-205,01
778,19	-101,92
778,368	130,63
778,546	237,81
778,725	-245,28
778,903	25,05
779,081	202,09
779,259	246,69
779,437	-35,93
779,616	-53,68
779,794	153,84
779,972	385,26
780,15	-26,38
780,328	-108,75
780,506	129,95
780,685	165,9
780,863	-20,92
781,041	92,63
781,219	205,73
781,397	195,71
781,575	-146,52
781,753	-1,12
781,931	135,64
782,109	227,57
782,287	-53,23
782,465	-102,15
782,643	127,45
782,82	149,29
782,998	-240,96
783,176	-152,44
783,354	228,25
783,532	270,12
783,71	-65,97
783,888	-108,3
784,065	111,06
784,243	157,71
784,421	-47,31
784,599	-96,46
784,776	137,69
784,954	186,38
785,132	-82,13
785,31	-35,25
785,487	144,74
785,665	157,49
785,842	-79,62
786,02	-339,03
786,198	175,23
786,375	273,31
786,553	-58,69
786,73	-65,29
786,908	164,31
787,085	170
787,263	-13,18
787,44	-16,36
787,618	155,44
787,795	255,33
787,973	61,23
788,15	-38,89
788,328	113,57
788,505	93,09
788,682	-139,7
788,86	10,26
789,037	167,27
789,215	175,92
789,392	-15
789,569	-150,39
789,746	154,53
789,924	176,37
790,101	-129,69
790,278	-165,18
790,455	246,23
790,633	146,33
790,81	-65,74
790,987	-42,76
791,164	168,41
791,341	170,68
791,518	85,12
791,695	-71,66
791,873	220,29
792,05	278,77
792,227	47,12
792,404	416,21
792,581	1147,79
792,758	2030,24
792,935	2465,55
793,112	2725,18
793,289	3245,59
793,466	3008,03
793,643	2427,09
793,82	1860,48
793,996	1311,63
794,173	1064,96
794,35	591,43
794,527	266,94
794,704	391,18
794,881	409,39
795,057	128,36
795,234	243,04
795,411	348,63
795,588	219,61
795,765	171,82
795,941	-4,08
796,118	242,82
796,295	279,23
796,471	-141,52
796,648	24,14
796,825	96,05
797,001	299,93
797,178	-179,52
797,354	-132,19
797,531	159,53
797,708	233,71
797,884	-93,73
798,061	172,28
798,237	554,56
798,414	985,55
798,59	1015,58
798,767	1475,01
798,943	2057,09
799,119	2546,78
799,296	2854,2
799,472	3151,39
799,649	3720,27
799,825	3572,81
800,001	3407,16
800,178	3055,82
800,354	2640,76
800,53	1898,26
800,707	1254,97
800,883	911,82
801,059	916,37
801,235	485,16
801,411	413,71
801,588	401,19
801,764	404,15
801,94	310,4
802,116	162,72
802,292	118,57
802,468	250,33
802,645	215,74
802,821	-130,82
802,997	-28,2
803,173	153,39
803,349	253,06
803,525	-4,3
803,701	-51,18
803,877	162,26
804,053	176,6
804,229	51,22
804,405	-114,44
804,581	273,99
804,756	315,63
804,932	38,25
805,108	53,95
805,284	218,01
805,46	259,43
805,636	-25,92
805,812	31,42
805,987	245,09
806,163	223,7
806,339	-1853,62
806,515	89,22
806,69	195,03
806,866	219,83
807,042	-97,83
807,217	9,58
807,393	219,15
807,569	323,6
807,744	-32,75
807,92	269,67
808,096	1539,64
808,271	2296,7
808,447	3020,09
808,622	3542,09
808,798	4019,95
808,973	4339,21
809,149	4841,42
809,324	6171,91
809,5	8305,67
809,675	9856,89
809,851	10509,06
810,026	10358,19
810,201	9649,82
810,377	7674,44
810,552	5355,23
810,728	3743,71
810,903	3140,92
811,078	2557,48
811,253	1703,93
811,429	1643,4
811,604	1465
811,779	1222,43
811,955	699,74
812,13	472,42
812,305	539,77
812,48	400,28
812,655	-59,14
812,83	-65,06
813,006	277,63
813,181	249,42
813,356	142,92
813,531	221,43
813,706	268,08
813,881	296,52
814,056	58,27
814,231	-83,95
814,406	186,38
814,581	351,36
814,756	21,64
814,931	-16,59
815,106	276,49
815,281	258,29
815,456	-72,57
815,631	199,58
815,805	1028,78
815,98	1919,19
816,155	3254,47
816,33	4765,19
816,505	6118,44
816,68	6823,85
816,854	7039,57
817,029	7402,52
817,204	8491,35
817,379	9816,39
817,553	11074,52
817,728	12230,72
817,903	12709,26
818,077	11851,39
818,252	9854,16
818,427	7459,86
818,601	5807,38
818,776	4395,19
818,95	3436,51
819,125	2562,48
819,299	2456,22
819,474	1961,29
819,648	1432,91
819,823	958,24
819,997	1077,48
820,172	842,87
820,346	391,18
820,521	230,53
820,695	389,36
820,87	433,96
821,044	80,12
821,218	87,85
821,393	236,67
821,567	299,71
821,741	-8,63
821,916	30,51
822,09	209,82
822,264	355
822,438	78,98
822,613	4,8
822,787	193,21
822,961	272,85
823,135	-165,41
823,309	32,79
823,483	203,91
823,658	263,75
823,832	-61,19
824,006	495,85
824,18	914,1
824,354	1367,83
824,528	1471,14
824,702	1598,8
824,876	2039,8
825,05	1873
825,224	1350,09
825,398	915,46
825,572	999,43
825,746	758,45
825,92	242,82
826,093	348,17
826,267	534,08
826,441	550,24
826,615	74,43
826,789	-31,84
826,963	393,68
827,136	274,22
827,31	33,7
827,484	176,37
827,658	290,6
827,831	179,33
828,005	2,75
828,179	116,98
828,353	173,87
828,526	207,55
828,7	23,91
828,873	67,15
829,047	87,4
829,221	237,36
829,394	-104,88
829,568	-43,44
829,741	205,73
829,915	272,17
830,088	-242,78
830,262	-262,35
830,435	167,5
830,609	136,55
830,782	-73,48
830,956	-111,94
831,129	146,56
831,302	261,7
831,476	-0,21
831,649	3,66
831,822	147,25
831,996	147,02
832,169	-223,44
832,342	183,65
832,516	312,22
832,689	285,37
832,862	-142,66
833,035	-251,88
833,209	55,09
833,382	194,35
833,555	120,62
833,728	13,22
833,901	152,48
834,074	261,7
834,247	-9,54
834,42	-107,16
834,594	165,22
834,767	163,17
834,94	-188,17
835,113	-49,81
835,286	86,26
835,459	201,63
835,632	-27,29
835,805	-62,33
835,977	98,55
836,15	99,23
836,323	25,73
836,496	-151,99
836,669	81,03
836,842	167,04
837,015	-124,68
837,188	-34,8
837,36	181,61
837,533	182,97
837,706	-120,13
837,879	-71,89
838,051	256,24
838,224	315,86
838,397	388,22
838,569	637,62
838,742	1475,01
838,915	1984,05
839,087	1857,75
839,26	1960,38
839,433	2227,53
839,605	2002,48
839,778	1660,01
839,95	1282,96
840,123	1732,15
840,295	1996,56
840,468	2543,6
840,64	2771,6
840,813	3259,7
840,985	3063,33
841,158	2618,69
841,33	2128,09
841,502	1984,05
841,675	1561,48
841,847	882,47
842,019	660,6
842,192	858,35
842,364	777,34
842,536	504,73
842,709	361,37
842,881	466,5
843,053	324,96
843,225	129,04
843,398	-50,5
843,57	247,14
843,742	270,12
843,914	14,58
844,086	-154,03
844,258	192,76
844,43	109,24
844,602	-124
844,775	-9,77
844,947	208,68
845,119	165,22
845,291	-267,81
845,463	-220,93
845,635	184,11
845,807	140,87
845,979	-76,67
846,15	-169,73
846,322	177,96
846,494	223,7
846,666	-1,35
846,838	-113,07
847,01	251,92
847,182	176,37
847,354	-135,37
847,525	-126,5
847,697	180,24
847,869	146,11
848,041	-122,18
848,212	-124
848,384	249,87
848,556	200,72
848,727	-145,39
848,899	33,92
849,071	160,22
849,242	168,18
849,414	-134,01
849,585	-20,92
849,757	359,55
849,929	346,81
850,1	380,26
850,272	364,56
850,443	676,99
850,615	731,6
850,786	635,12
850,958	579,82
851,129	639,9
851,3	674,03
851,472	200,04
851,643	213,01
851,815	338,16
851,986	320,64
852,157	21,86
852,329	-227,08
852,5	358,64
852,671	201,86
852,842	-51,18
853,014	40,52
853,185	270,12
853,356	141,33
853,527	-119,67
853,698	-77,58
853,87	57,36
854,041	137,23
854,212	-155,63
854,383	-105,79
854,554	216,88
854,725	292,2
854,896	-130,14
855,067	-108,75
855,238	181,61
855,409	85,58
855,58	-47,54
855,751	-260,3
855,922	173,41
856,093	-232,08
856,264	45,07
856,435	-68,7
856,606	206,41
856,777	237,13
856,948	-107,84
857,118	-20,69
857,289	179,1
857,46	68,28
857,631	-103,52
857,802	-133,33
857,972	197,99
858,143	215,74
858,314	-25,01
858,484	44,39
858,655	200,26
858,826	108,11
858,996	-67,56
859,167	-244,6
859,338	236,45
859,508	77,39
859,679	-91,46
859,849	9,8
860,02	257,15
860,19	73,97
860,361	-238,68
860,531	-50,5
860,702	215,28
860,872	137,23
861,043	-29,34
861,213	-188,62
861,384	76,48
861,554	74,66
861,724	30,06
861,895	-28,43
862,065	47,35
862,235	166,81
862,406	-122,18
862,576	-33,89
862,746	119,48
862,916	78,75
863,087	-202,96
863,257	-128,32
863,427	194,58
863,597	253,97
863,767	-129
863,937	21,86
864,108	143,6
864,278	178,65
864,448	-196,36
864,618	-173,38
864,788	190,94
864,958	187,98
865,128	28,24
865,298	-32,98
865,468	287,87
865,638	277,63
865,808	-55,73
865,978	-207,51
866,148	116,98
866,318	282,64
866,487	-106,7
866,657	-5,67
866,827	164,77
866,997	239,18
867,167	-231,17
867,337	-78,94
867,506	230,07
867,676	171,37
867,846	-28,2
868,016	-189,99
868,185	153,39
868,355	116,98
868,525	-87,36
868,694	-91,46
868,864	229,16
869,034	61
869,203	-169,96
869,373	-156,76
869,542	252,6
869,712	210,96
869,881	-141,75
870,051	-58,92
870,22	158,4
870,39	157,71
870,559	-99,88
870,729	92,41
870,898	113,8
871,068	261,25
871,237	-45,49
871,406	-20,92
871,576	76,02
871,745	197,31
871,914	-11,59
872,084	-98,74
872,253	173,41
872,422	146,56
872,591	-204,1
872,761	25,73
872,93	221,2
873,099	105,83
873,268	-47,99
873,437	102,42
873,607	243,27
873,776	44,85
873,945	-172,69
874,114	30,28
874,283	193,89
874,452	82,39
874,621	-121,72
874,79	-143,79
874,959	260,11
875,128	85,12
875,297	-177,02
875,466	-136,97
875,635	197,76
875,804	103,56
875,973	-53,46
876,142	-199,09
876,31	190,25
876,479	175,92
876,648	-58,46
876,817	2,29
876,986	251,24
877,155	90,58
877,323	60,09
877,492	-149,71
877,661	231,21
877,829	52,13
877,998	-76,89
878,167	-171,56
878,335	211,19
878,504	72,61
878,673	-34,34
878,841	106,97
879,01	122,9
879,178	182,52
879,347	-128,55
879,515	-31,38
879,684	127,9
879,852	134,05
880,021	-91,46
880,189	-157,22
880,358	155,21
880,526	52,58
880,695	25,05
880,863	-154,26
881,031	208,23
881,2	229,16
881,368	34,83
881,536	-273,27
881,705	197,08
881,873	244,18
882,041	-130,37
882,21	-123,54
882,378	244,18
882,546	140,42
882,714	-128,55
882,882	17,54
883,05	112,88
883,219	39,39
883,387	22,32
883,555	-40,03
883,723	166,81
883,891	239,18
884,059	25,96
884,227	-198,18
884,395	215,51
884,563	250,1
884,731	-128,78
884,899	-195,22
885,067	131,32
885,235	145,65
885,403	-178,15
885,571	-145,61
885,739	243,27
