Data from Na 2_Subt6__0__13-45-44-695.txt Node

Date: Tue Feb 02 13:45:44 CET 2021
User: Praktikum
Spectrometer: USB4F03543
Trigger mode: 4
Integration Time (sec): 1,000000E-1
Scans to average: 6
Electric dark correction enabled: true
Nonlinearity correction enabled: false
Boxcar width: 0
XAxis mode: Wavelengths
Number of Pixels in Spectrum: 3648
>>>>>Begin Spectral Data<<<<<
179,969	585,49
180,181	585,49
180,394	585,49
180,606	520,3
180,819	494,02
181,031	-224,82
181,243	-327,22
181,456	176,24
181,668	206,62
181,88	-229,6
182,093	-55,52
182,305	251,67
182,518	248,94
182,73	-391,73
182,942	-162,7
183,155	245,19
183,367	262,94
183,579	-326,88
183,791	-211,17
184,004	217,54
184,216	203,55
184,428	-126,52
184,641	-130,61
184,853	277,61
185,065	299,8
185,277	-239,5
185,49	-214,24
185,702	244,16
185,914	216,52
186,126	-84,88
186,338	-172,94
186,551	389,57
186,763	185,45
186,975	23,67
187,187	-173,96
187,399	275,57
187,612	324,38
187,824	-10,81
188,036	-187,28
188,248	169,75
188,46	281,71
188,672	-245,64
188,885	-62,01
189,097	298,78
189,309	238,36
189,521	-130,61
189,733	-237,45
189,945	331,54
190,157	195,69
190,369	-163,72
190,581	-35,38
190,794	219,25
191,006	247,92
191,218	-54,84
191,43	-182,16
191,642	219,59
191,854	222,32
192,066	-306,4
192,278	-128,91
192,49	331,88
192,702	136,3
192,914	-147,34
193,126	-131,64
193,338	309,7
193,55	315,16
193,762	-122,08
193,974	139,38
194,186	301,85
194,398	201,16
194,61	-81,8
194,822	-188,64
195,034	250,65
195,246	40,39
195,457	-145,29
195,669	-325,85
195,881	254,74
196,093	304,58
196,305	-184,2
196,517	82,72
196,729	319,26
196,941	219,25
197,153	-274,31
197,365	-400,95
197,576	277,95
197,788	295,36
198	-271,58
198,212	-434,06
198,424	276,59
198,636	275,91
198,847	68,38
199,059	-213,22
199,271	336,32
199,483	234,95
199,695	-143,24
199,906	-215,26
200,118	196,38
200,33	225,39
200,542	-585,61
200,753	-97,85
200,965	363,97
201,177	313,11
201,389	-160,65
201,6	69,74
201,812	214,81
202,024	268,4
202,235	12,06
202,447	-334,39
202,659	307,99
202,871	284,1
203,082	-179,42
203,294	-29,58
203,506	285,81
203,717	289,56
203,929	-135,05
204,141	32,88
204,352	363,97
204,564	141,76
204,775	-141,54
204,987	-360,33
205,199	302,53
205,41	176,92
205,622	-192,74
205,833	-155,19
206,045	224,71
206,257	196,04
206,468	-13,88
206,68	-60,64
206,891	228,8
207,103	198,43
207,314	-29,92
207,526	-247,69
207,737	313,79
207,949	171,46
208,16	-161,33
208,372	-118,33
208,583	246,21
208,795	234,26
209,006	-135,39
209,218	-272,95
209,429	273,18
209,641	179,65
209,852	-83,17
210,064	-209,46
210,275	275,91
210,487	205,25
210,698	-223,8
210,909	-252,47
211,121	248,26
211,332	273,86
211,544	-326,88
211,755	-362,04
211,966	163,95
212,178	225,39
212,389	-446
212,6	-134,03
212,812	105,58
213,023	313,45
213,234	-199,22
213,446	-221,41
213,657	281,71
213,868	306,29
214,08	-477,06
214,291	-192,05
214,502	257,82
214,714	228,12
214,925	-120,03
215,136	-107,75
215,347	183,41
215,559	220,27
215,77	70,09
215,981	-397,19
216,192	330,86
216,404	275,57
216,615	-295,14
216,826	-207,76
217,037	160,54
217,249	323,69
217,46	-363,06
217,671	-117,99
217,882	289,9
218,093	394,69
218,304	-228,92
218,516	-201,27
218,727	254,4
218,938	234,26
219,149	-405,73
219,36	-290,36
219,571	334,96
219,782	256,45
219,993	-369,54
220,205	-35,73
220,416	236,65
220,627	152
220,838	-229,26
221,049	-542,6
221,26	368,75
221,471	269,42
221,682	-136,08
221,893	-261,68
222,104	208,32
222,315	302,53
222,526	71,11
222,737	-127,2
222,948	299,46
223,159	228,46
223,37	-106,38
223,581	-29,92
223,792	277,61
224,003	188,19
224,214	76,91
224,425	-225,85
224,636	260,89
224,847	156,78
225,058	-111,84
225,269	-186,25
225,48	272,15
225,691	294,68
225,902	-235,06
226,112	-17,64
226,323	338,03
226,534	266,35
226,745	-85,9
226,956	-42,89
227,167	243,48
227,378	247,92
227,589	-26,85
227,799	-381,83
228,01	352,71
228,221	287,17
228,432	-134,37
228,643	73,84
228,853	203,55
229,064	195,01
229,275	-133,69
229,486	-34,7
229,697	287,51
229,907	198,77
230,118	-102,28
230,329	111,39
230,54	296,39
230,75	206,62
230,961	-249,06
231,172	-103,65
231,383	249,62
231,593	319,26
231,804	-37,43
232,015	-136,08
232,225	290,24
232,436	223
232,647	-300,94
232,857	-264,42
233,068	231,53
233,279	237
233,489	-128,91
233,7	-112,18
233,91	228,46
234,121	219,93
234,332	-135,39
234,542	-149,73
234,753	287,51
234,964	258,84
235,174	-90
235,385	-216,29
235,595	207,98
235,806	217,88
236,016	42,1
236,227	-123,11
236,437	304,58
236,648	325,4
236,858	-98,53
237,069	-14,22
237,279	238,7
237,49	289,22
237,7	-94,09
237,911	-180,11
238,121	276,59
238,332	230,85
238,542	-272,61
238,753	-17,64
238,963	321,64
239,174	250,99
239,384	-82,83
239,595	-46,31
239,805	271,81
240,015	227,78
240,226	-83,85
240,436	-162,36
240,647	341,78
240,857	257,13
241,067	-167,82
241,278	-607,79
241,488	361,24
241,698	195,35
241,909	-44,6
242,119	-183,52
242,329	207,98
242,54	305,94
242,75	-69,18
242,96	83,06
243,171	150,64
243,381	324,72
243,591	14,45
243,801	-279,09
244,012	135,28
244,222	240,75
244,432	102,51
244,642	156,44
244,853	288,54
245,063	223,68
245,273	-128,23
245,483	-188,98
245,694	183,75
245,904	258,84
246,114	-190,69
246,324	62,92
246,534	212,42
246,744	315,84
246,955	185,45
247,165	-295,48
247,375	45,51
247,585	246,55
247,795	-134,03
248,005	-217,65
248,215	353,73
248,425	191,94
248,636	-524,85
248,846	2,16
249,056	343,15
249,266	313,11
249,476	-144,27
249,686	-112,52
249,896	291,95
250,106	185,8
250,316	-68,15
250,526	-377,05
250,736	301,51
250,946	101,83
251,156	-382,17
251,366	-69,18
251,576	229,49
251,786	258,16
251,996	-38,11
252,206	20,59
252,416	292,63
252,626	275,22
252,836	72,48
253,046	-101,26
253,256	294,68
253,466	293,31
253,676	-4,32
253,885	-222,09
254,095	243,48
254,305	198,08
254,515	-54,16
254,725	-58,25
254,935	258,16
255,145	256,79
255,355	-183,18
255,564	-63,37
255,774	302,19
255,984	-33
256,194	-83,17
256,404	-37,09
256,614	255,09
256,823	214,47
257,033	-44,94
257,243	-160,65
257,453	424,38
257,662	248,26
257,872	-235,4
258,082	-43,23
258,292	252,36
258,501	326,42
258,711	-696,88
258,921	-318,69
259,131	249,62
259,34	179,99
259,55	-63,37
259,76	100,46
259,969	274,2
260,179	177,95
260,389	-52,45
260,598	-238,13
260,808	253,72
261,018	252,7
261,227	-244,28
261,437	99,1
261,647	342,81
261,856	281,71
262,066	-208,78
262,275	-428,94
262,485	319,6
262,694	173,51
262,904	-116,96
263,114	-236,77
263,323	247,24
263,533	278,64
263,742	-63,03
263,952	-112,52
264,161	275,22
264,371	243,82
264,58	-73,95
264,79	-55,52
264,999	18,2
265,209	325,4
265,418	-161,33
265,628	-115,6
265,837	344,51
266,047	256,45
266,256	-342,92
266,466	-16,61
266,675	261,57
266,884	284,44
267,094	-152,8
267,303	-281,14
267,513	193,65
267,722	43,46
267,931	-138,81
268,141	-55,18
268,35	309,7
268,559	235,63
268,769	-2,62
268,978	136,99
269,187	276,59
269,397	240,07
269,606	168,73
269,815	1,82
270,025	233,58
270,234	227,1
270,443	33,91
270,653	-19,34
270,862	368,07
271,071	265,33
271,28	-38,11
271,49	-183,18
271,699	183,41
271,908	183,07
272,117	-59,62
272,327	-73,95
272,536	327,45
272,745	201,16
272,954	1,82
273,163	-217,99
273,372	-24,8
273,582	123,67
273,791	-122,42
274	0,11
274,209	56,77
274,418	102,17
274,627	-274,66
274,836	-22,76
275,046	-84,19
275,255	72,82
275,464	53,36
275,673	88,52
275,882	9,67
276,091	186,48
276,3	-188,3
276,509	-108,43
276,718	68,38
276,927	36,64
277,136	-94,43
277,345	-80,78
277,554	19,57
277,763	40,73
277,972	-142,22
278,181	-108,09
278,39	122,99
278,599	45,85
278,808	60,53
279,017	-158,26
279,226	46,53
279,435	-35,73
279,644	-32,31
279,853	-103,99
280,062	-167,48
280,271	97,39
280,48	-85,22
280,688	-39,48
280,897	122,65
281,106	90,22
281,315	10,69
281,524	-26,17
281,733	17,18
281,942	31,17
282,151	-107,4
282,359	-222,43
282,568	131,53
282,777	111,73
282,986	-84,88
283,195	-79,07
283,403	75,55
283,612	86,13
283,821	18,2
284,03	-17,29
284,238	-118,33
284,447	107,29
284,656	-21,39
284,865	-40,85
285,073	112,07
285,282	61,55
285,491	-31,29
285,699	95,34
285,908	48,58
286,117	110,7
286,325	-114,91
286,534	-251,45
286,743	136,99
286,951	24,69
287,16	-160,31
287,369	-1,93
287,577	36,64
287,786	118,55
287,995	-59,28
288,203	49,61
288,412	-45,28
288,62	-2,96
288,829	-5,01
289,037	102,85
289,246	81,01
289,455	205,25
289,663	-171,23
289,872	-255,54
290,08	-16,61
290,289	89,88
290,497	38
290,706	-133,35
290,914	163,27
291,123	152,35
291,331	-31,63
291,54	-158,6
291,748	19,23
291,957	13,43
292,165	-114,23
292,373	84,08
292,582	66,33
292,79	0,11
292,999	-105,36
293,207	-135,39
293,415	91,25
293,624	104,9
293,832	-99,9
294,041	-94,09
294,249	45,51
294,457	220,27
294,666	-166,8
294,874	60,87
295,082	42,44
295,291	26,74
295,499	-21,73
295,707	-55,18
295,915	-7,74
296,124	29,47
296,332	-57,57
296,54	-62,01
296,749	-77,71
296,957	81,01
297,165	-15,25
297,373	13,77
297,581	41,41
297,79	62,92
297,998	43,46
298,206	63,26
298,414	32,2
298,622	128,45
298,831	-191,37
299,039	-0,91
299,247	-51,43
299,455	89,2
299,663	-193,76
299,871	-16,61
300,08	93,3
300,288	146,2
300,496	-60,98
300,704	-46,99
300,912	190,23
301,12	163,61
301,328	-106,38
301,536	-7,74
301,744	180,68
301,952	99,44
302,16	53,36
302,368	32,54
302,576	-11,15
302,784	-54,84
302,992	158,15
303,2	32,88
303,408	47,9
303,616	123,33
303,824	-108,77
304,032	-213,22
304,24	-124,47
304,448	-17,98
304,656	31,52
304,864	-249,4
305,072	17,52
305,28	18,89
305,488	-47,33
305,696	-34,36
305,904	61,89
306,111	141,76
306,319	-6,03
306,527	-50,06
306,735	-86,92
306,943	26,05
307,151	-166,11
307,359	76,91
307,566	53,02
307,774	-26,85
307,982	-144,27
308,19	57,46
308,398	71,45
308,605	79,3
308,813	40,05
309,021	-27,53
309,229	-21,39
309,436	130,84
309,644	-211,17
309,852	-163,04
310,06	0,46
310,267	62,58
310,475	-120,38
310,683	-19
310,89	39,71
311,098	33,56
311,306	-37,09
311,513	-253,83
311,721	135,96
311,929	-6,71
312,136	-21,05
312,344	-28,22
312,552	-124,81
312,759	211,05
312,967	-148,71
313,174	-153,14
313,382	24,35
313,589	-1,25
313,797	-73,95
314,005	-182,84
314,212	91,25
314,42	129,48
314,627	-93,41
314,835	73,16
315,042	74,86
315,25	116,51
315,457	2,5
315,665	213,44
315,872	-29,58
316,08	200,81
316,287	10,01
316,495	-173,28
316,702	33,22
316,909	212,42
317,117	-147
317,324	-94,78
317,532	-159,29
317,739	138,35
317,946	0,8
318,154	21,28
318,361	109
318,569	-167,82
318,776	63,94
318,983	154,05
319,191	61,21
319,398	-11,49
319,605	-85,9
319,813	-162,02
320,02	148,25
320,227	-8,08
320,434	-87,27
320,642	-58,25
320,849	151,32
321,056	20,25
321,264	-53,47
321,471	-78,73
321,678	7,96
321,885	170,78
322,092	-168,5
322,3	39,37
322,507	196,72
322,714	12,06
322,921	30,83
323,128	6,6
323,336	105,24
323,543	111,05
323,75	-118,67
323,957	-156,9
324,164	2,16
324,371	102,17
324,578	152,69
324,786	-96,48
324,993	119,58
325,2	-28,56
325,407	213,1
325,614	64,62
325,821	-38,11
326,028	33,22
326,235	-70,88
326,442	-49,04
326,649	86,81
326,856	44,83
327,063	98,07
327,27	-79,42
327,477	128,45
327,684	215,83
327,891	23,67
328,098	-127,54
328,305	58,48
328,512	183,41
328,719	-113,55
328,926	-138,12
329,133	266,69
329,34	23,67
329,546	247,92
329,753	456,47
329,96	764,35
330,167	560,23
330,374	438,04
330,581	269,42
330,788	447,25
330,995	126,75
331,201	8,31
331,408	-11,15
331,615	127,43
331,822	52
332,029	-60,64
332,235	-17,64
332,442	33,22
332,649	103,54
332,856	79,64
333,062	-44,6
333,269	95,69
333,476	153,37
333,683	-13,54
333,889	-155,53
334,096	33,56
334,303	90,22
334,509	-46,31
334,716	-55,18
334,923	86,81
335,129	54,04
335,336	-9,78
335,543	-132,32
335,749	84,08
335,956	-2,96
336,163	162,24
336,369	-116,28
336,576	122,99
336,782	2,16
336,989	82,03
337,196	-76,69
337,402	81,69
337,609	225,73
337,815	-4,66
338,022	-150,41
338,228	-43,23
338,435	57,46
338,641	-199,9
338,848	-153,14
339,054	30,83
339,261	169,41
339,467	153,37
339,674	-49,04
339,88	8,31
340,087	113,09
340,293	34,93
340,5	12,06
340,706	-101,94
340,912	168,73
341,119	57,46
341,325	-53,47
341,532	41,76
341,738	179,31
341,944	-109,11
342,151	-50,06
342,357	32,54
342,563	-52,45
342,77	-77,71
342,976	125,04
343,182	76,23
343,389	63,94
343,595	-29,92
343,801	112,75
344,007	-11,83
344,214	264,98
344,42	-82,15
344,626	67,36
344,832	86,81
345,039	178,63
345,245	-70,54
345,451	-3,3
345,657	-7,74
345,864	120,6
346,07	-93,07
346,276	-31,63
346,482	-15,59
346,688	-70,54
346,894	10,01
347,1	-33,68
347,307	94,32
347,513	-33,34
347,719	-88,63
347,925	-64,74
348,131	191,94
348,337	73,84
348,543	21,28
348,749	41,07
348,955	100,81
349,161	100,12
349,367	-101,26
349,573	-212,19
349,779	6,6
349,985	108,66
350,191	-15,59
350,397	-89,31
350,603	-35,04
350,809	96,03
351,015	-90,68
351,221	-6,03
351,427	-52,45
351,633	-101,26
351,839	-176,01
352,045	-84,88
352,251	56,09
352,457	105,24
352,663	-124,47
352,869	-26,17
353,075	1,82
353,28	154,05
353,486	-30,95
353,692	-71,91
353,898	105,58
354,104	23,67
354,31	-178,06
354,515	57,12
354,721	70,43
354,927	94,32
355,133	-107,4
355,339	-0,91
355,544	181,7
355,75	-71,91
355,956	-22,07
356,162	-138,12
356,367	276,59
356,573	-149,39
356,779	16,5
356,984	-98,53
357,19	-74,3
357,396	34,59
357,602	-300,25
357,807	-84,19
358,013	69,06
358,218	103,54
358,424	61,21
358,63	53,7
358,835	105,93
359,041	140,74
359,247	-57,91
359,452	75,55
359,658	163,95
359,863	55,75
360,069	-93,75
360,274	-70,88
360,48	132,89
360,685	184,09
360,891	-136,08
361,097	37,32
361,302	158,15
361,508	-11,15
361,713	-44,6
361,918	-357,94
362,124	92,61
362,329	-56,89
362,535	-88,29
362,74	4,21
362,946	122,31
363,151	89,88
363,357	3,53
363,562	129,82
363,767	157,12
363,973	15,13
364,178	67,7
364,383	-21,05
364,589	7,28
364,794	124,36
365	-99,9
365,205	-76,34
365,41	104,9
365,615	46,19
365,821	108,66
366,026	-174,3
366,231	38,34
366,437	-88,29
366,642	136,3
366,847	-124,47
367,052	110,7
367,258	57,8
367,463	31,17
367,668	64,97
367,873	-28,56
368,078	5,92
368,284	258,84
368,489	-8,76
368,694	76,23
368,899	133,57
369,104	-221,07
369,309	-110,82
369,515	-13,2
369,72	9,33
369,925	114,8
370,13	-153,48
370,335	71,79
370,54	107,97
370,745	-146,32
370,95	-69,86
371,155	91,93
371,36	12,4
371,565	-142,9
371,77	-124,81
371,975	196,72
372,18	119,92
372,385	-186,93
372,59	-117,3
372,795	69,06
373	52
373,205	-208,44
373,41	-17,29
373,615	108,31
373,82	188,87
374,025	-69,18
374,23	131,87
374,435	146,88
374,64	71,45
374,845	-156,56
375,05	-4,66
375,254	131,53
375,459	149,27
375,664	79,98
375,869	-49,04
376,074	102,85
376,279	102,17
376,483	-130,96
376,688	38
376,893	89,54
377,098	147,57
377,303	-122,08
377,507	-124,13
377,712	156,78
377,917	-29,58
378,122	-127,2
378,326	-31,29
378,531	92,96
378,736	163,27
378,94	93,64
379,145	-24,12
379,35	21,28
379,554	83,74
379,759	41,07
379,964	-91,7
380,168	214,13
380,373	124,7
380,578	-225,16
380,782	-498,91
380,987	-41,53
381,191	226,41
381,396	-141,88
381,601	-14,22
381,805	49,95
382,01	5,92
382,214	-105,02
382,419	-5,69
382,623	47,9
382,828	80,67
383,032	73,84
383,237	124,36
383,441	89,2
383,646	-11,83
383,85	121,29
384,055	-174,99
384,259	163,27
384,464	204,57
384,668	16,5
384,872	-43,92
385,077	45,17
385,281	68,38
385,486	70,77
385,69	-105,02
385,894	20,93
386,099	-3,98
386,303	-92,39
386,507	-158,6
386,712	-113,89
386,916	115,14
387,12	105,58
387,325	-194,44
387,529	36,29
387,733	-5,01
387,937	-6,03
388,142	22,98
388,346	137,33
388,55	60,87
388,754	18,2
388,959	89,54
389,163	-20,37
389,367	163,95
389,571	19,57
389,775	-144,95
389,98	65,31
390,184	2,5
390,388	-6,03
390,592	-129,93
390,796	65,31
391	91,25
391,204	-28,9
391,409	35,95
391,613	101,15
391,817	151,32
392,021	-138,47
392,225	50,29
392,429	92,96
392,633	18,89
392,837	-62,35
393,041	-4,32
393,245	-57,57
393,449	178,97
393,653	-29,92
393,857	-67,47
394,061	-114,23
394,265	139,38
394,469	-94,09
394,673	-223,11
394,877	0,46
395,081	85,1
395,285	-220,73
395,489	-85,22
395,693	105,58
395,896	99,44
396,1	-158,26
396,304	-3,3
396,508	206,28
396,712	97,05
396,916	55,07
397,12	-68,15
397,323	152
397,527	-18,32
397,731	-248,71
397,935	-87,95
398,139	34,25
398,342	-1,59
398,546	-52,79
398,75	20,25
398,954	16,16
399,157	-93,75
399,361	-188,98
399,565	40,39
399,769	-5,69
399,972	29,47
400,176	-19
400,38	-63,03
400,583	168,73
400,787	4,55
400,991	-151,09
401,194	-143,24
401,398	69,74
401,601	18,55
401,805	-126,52
402,009	-40,85
402,212	67,01
402,416	-21,39
402,619	98,76
402,823	-281,14
403,026	141,08
403,23	21,28
403,433	-240,86
403,637	-117,64
403,841	-24,12
404,044	-98,87
404,247	-74,64
404,451	-261
404,654	-12,52
404,858	2,16
405,061	-83,85
405,265	-80,1
405,468	-24,46
405,672	67,7
405,875	-224,14
406,078	-9,44
406,282	86,81
406,485	129,82
406,689	-204
406,892	-262,03
407,095	100,46
407,299	134,26
407,502	-169,53
407,705	65,99
407,909	62,92
408,112	70,77
408,315	-133,69
408,518	-274,31
408,722	56,09
408,925	44,83
409,128	-206,05
409,331	-132,32
409,535	56,43
409,738	129,14
409,941	-317,66
410,144	-58,94
410,347	50,63
410,551	29,13
410,754	-1,59
410,957	-110,14
411,16	145,86
411,363	29,47
411,566	-107,06
411,769	-49,38
411,973	115,48
412,176	14,45
412,379	-323,81
412,582	-184,89
412,785	-104,33
412,988	126,06
413,191	-134,37
413,394	-114,91
413,597	167,71
413,8	25,03
414,003	-252,81
414,206	4,21
414,409	5,58
414,612	34,93
414,815	-75,32
415,018	-19
415,221	104,22
415,424	-82,83
415,627	-137,1
415,83	-25,14
416,033	17,86
416,235	177,6
416,438	-212,19
416,641	-329,27
416,844	77,94
417,047	202,18
417,25	44,15
417,453	-51,77
417,655	30,15
417,858	12,4
418,061	-57,91
418,264	-31,63
418,467	127,77
418,669	110,7
418,872	-139,49
419,075	130,84
419,278	214,13
419,48	45,85
419,683	66,33
419,886	194,33
420,089	101,15
420,291	68,72
420,494	66,67
420,697	-53,13
420,899	-0,57
421,102	176,92
421,305	-179,77
421,507	-139,49
421,71	81,35
421,912	93,3
422,115	24,69
422,318	-156,9
422,52	58,82
422,723	117,53
422,925	-193,42
423,128	-300,25
423,33	63,26
423,533	143,13
423,735	-125,84
423,938	25,71
424,14	122,99
424,343	74,18
424,545	-287,28
424,748	-225,5
424,95	-44,26
425,153	86,81
425,355	-89,31
425,558	-238,82
425,76	42,1
425,962	-22,07
426,165	-52,45
426,367	7,96
426,57	130,5
426,772	109,34
426,974	-177,72
427,177	-7,74
427,379	70,77
427,581	86,13
427,784	20,93
427,986	-41,53
428,188	145,52
428,39	131,53
428,593	-104,33
428,795	-104,67
428,997	53,7
429,2	73,5
429,402	-117,99
429,604	89,54
429,806	35,61
430,008	-164,75
430,211	-171,57
430,413	26,05
430,615	31,17
430,817	113,78
431,019	-34,02
431,221	-193,76
431,423	41,07
431,626	10,69
431,828	-10,81
432,03	83,74
432,232	141,42
432,434	50,29
432,636	-7,4
432,838	91,59
433,04	-124,81
433,242	21,28
433,444	-104,33
433,646	-315,96
433,848	53,02
434,05	-26,17
434,252	-81,46
434,454	-275
434,656	-221,75
434,858	-408,46
435,06	-570,93
435,262	-666,5
435,464	-409,82
435,666	-421,09
435,868	-563,08
436,07	-363,4
436,271	-25,83
436,473	6,6
436,675	-355,21
436,877	-259,3
437,079	22,98
437,281	66,67
437,482	-96,82
437,684	4,21
437,886	13,77
438,088	41,41
438,29	-207,07
438,491	-87,61
438,693	148,59
438,895	99,78
439,097	-276,02
439,298	-114,91
439,5	13,77
439,702	125,04
439,903	-133
440,105	-79,42
440,307	-44,6
440,508	-62,35
440,71	-120,38
440,912	-269,88
441,113	134,26
441,315	13,08
441,517	-102,28
441,718	-225,5
441,92	2,16
442,121	-59,28
442,323	-70,54
442,524	55,07
442,726	-115,6
442,928	82,72
443,129	-68,15
443,331	-99,55
443,532	35,61
443,734	10,01
443,935	-234,72
444,136	-44,26
444,338	67,01
444,539	8,99
444,741	-166,45
444,942	-215,61
445,144	-17,98
445,345	-143,93
445,546	20,25
445,748	-160,31
445,949	27,42
446,151	147,23
446,352	36,64
446,553	-439,52
446,755	102,85
446,956	75,89
447,157	-101,94
447,359	-189,32
447,56	-11,15
447,761	221,64
447,962	-285,24
448,164	-157,24
448,365	28,79
448,566	66,33
448,767	12,74
448,969	-276,36
449,17	13,43
449,371	32,54
449,572	-221,07
449,773	-80,78
449,974	26,74
450,176	-15,93
450,377	-104,33
450,578	-241,89
450,779	-29,58
450,98	166,34
451,181	-106,38
451,382	-170,89
451,583	-68,15
451,784	78,96
451,986	48,92
452,187	-232,67
452,388	65,65
452,589	-50,06
452,79	-191,03
452,991	-53,47
453,192	-86,92
453,393	-53,47
453,594	-202,29
453,795	49,27
453,995	98,07
454,196	75,55
454,397	-26,85
454,598	74,86
454,799	177,6
455	10,69
455,201	43,8
455,402	-312,2
455,603	129,14
455,804	55,41
456,004	-40,5
456,205	-63,71
456,406	7,28
456,607	21,28
456,808	-347,02
457,008	33,56
457,209	63,26
457,41	15,81
457,611	-172,94
457,811	-500,61
458,012	-4,66
458,213	86,81
458,414	-119,69
458,614	-114,23
458,815	-6,37
459,016	-5,69
459,216	-155,53
459,417	-114,91
459,618	-55,18
459,818	22,3
460,019	-3,64
460,22	-17,64
460,42	-44,26
460,621	-45,97
460,821	-42,89
461,022	-268,17
461,223	56,77
461,423	135,62
461,624	-194,1
461,824	-23,1
462,025	165,32
462,225	165,66
462,426	-256,56
462,626	14,79
462,827	-33,34
463,027	-145,63
463,228	-191,71
463,428	-251,79
463,628	82,37
463,829	-131,64
464,029	32,54
464,23	62,24
464,43	-10,13
464,63	55,41
464,831	97,73
465,031	-55,18
465,231	133,91
465,432	41,07
465,632	-511,54
465,832	179,65
466,033	159,51
466,233	105,58
466,433	-280,46
466,634	-99,9
466,834	-53,82
467,034	146,2
467,234	-186,93
467,435	-84,54
467,635	56,77
467,835	33,22
468,035	-176,35
468,235	-5,01
468,436	-83,85
468,636	75,89
468,836	157,47
469,036	-212,53
469,236	19,57
469,436	128,11
469,636	-330,29
469,836	20,93
470,037	52,34
470,237	108,66
470,437	-273,97
470,637	-185,23
470,837	-84,19
471,037	-37,09
471,237	-80,44
471,437	-93,07
471,637	64,28
471,837	38,68
472,037	60,53
472,237	-181,13
472,437	26,74
472,637	5,92
472,837	-209,46
473,036	-109,45
473,236	122,65
473,436	26,74
473,636	-58,59
473,836	84,42
474,036	67,36
474,236	77,94
474,436	93,98
474,635	-240,86
474,835	28,79
475,035	36,29
475,235	-55,52
475,435	-122,08
475,634	33,22
475,834	-19,68
476,034	-270,9
476,234	91,59
476,433	74,86
476,633	-109,45
476,833	-82,49
477,033	-48,35
477,232	-64,74
477,432	27,08
477,632	-295,82
477,831	-160,99
478,031	-6,03
478,231	42,44
478,43	-86,24
478,63	-58,59
478,829	292,97
479,029	-35,04
479,229	-35,73
479,428	126,41
479,628	11,04
479,827	-51,43
480,027	54,38
480,226	-450,44
480,426	-17,98
480,625	136,65
480,825	-92,39
481,024	-90
481,224	-209,8
481,423	114,46
481,623	-362,38
481,822	18,89
482,021	-12,17
482,221	-56,55
482,42	-316,64
482,62	-125,84
482,819	-126,86
483,018	-7,05
483,218	-11,15
483,417	-209,12
483,616	-39,48
483,816	-142,22
484,015	-336,78
484,214	-185,23
484,414	-168,16
484,613	-25,49
484,812	-266,12
485,011	-70,88
485,211	-312,2
485,41	-275,34
485,609	-183,86
485,808	-427,23
486,008	-175,67
486,207	-124,13
486,406	-278,07
486,605	-306,4
486,804	-169,18
487,003	-136,42
487,203	-261,34
487,402	-52,79
487,601	-120,03
487,8	-50,06
487,999	-202,29
488,198	-329,95
488,397	-242,57
488,596	11,04
488,795	-185,57
488,994	-290,36
489,193	-92,39
489,392	-196,83
489,591	-199,56
489,79	-217,65
489,989	-129,93
490,188	-28,9
490,387	-385,93
490,586	-306,74
490,785	-105,36
490,984	-212,87
491,183	-253,83
491,382	-353,84
491,581	-1,59
491,779	-20,71
491,978	-97,51
492,177	-212,87
492,376	16,5
492,575	99,78
492,774	-88,29
492,972	69,74
493,171	-50,4
493,37	1,14
493,569	-324,15
493,768	-321,76
493,966	-30,26
494,165	-15,25
494,364	-415,28
494,563	-396,85
494,761	-35,04
494,96	-92,73
495,159	-247,35
495,357	-45,28
495,556	-162,7
495,755	-203,32
495,953	-196,83
496,152	-94,78
496,35	167,02
496,549	331,54
496,748	170,44
496,946	343,49
497,145	577,98
497,343	638,74
497,542	487,53
497,74	-56,55
497,939	98,07
498,137	193,99
498,336	-157,92
498,534	-205,71
498,733	33,91
498,931	81,01
499,13	89,2
499,328	-68,15
499,527	18,2
499,725	94,32
499,924	-39,14
500,122	97,05
500,32	35,27
500,519	52,68
500,717	-150,75
500,915	-6,71
501,114	-59,28
501,312	69,4
501,51	88,52
501,709	-118,67
501,907	-90,68
502,105	165,32
502,304	-131,98
502,502	-168,84
502,7	-52,79
502,898	144,84
503,097	-120,38
503,295	-98,19
503,493	148,59
503,691	-90,68
503,889	124,02
504,088	88,52
504,286	104,22
504,484	88,52
504,682	-97,51
504,88	-53,82
505,078	-43,23
505,276	43,8
505,474	-327,56
505,672	9,67
505,871	27,76
506,069	187,5
506,267	-41,87
506,465	-208,78
506,663	156,44
506,861	45,85
507,059	-191,71
507,257	-168,5
507,455	63,6
507,653	71,11
507,851	-122,76
508,049	53,7
508,246	-88,63
508,444	64,97
508,642	-61,67
508,84	-196,49
509,038	34,25
509,236	56,09
509,434	-36,41
509,632	-239,84
509,829	80,67
510,027	95,34
510,225	-208,44
510,423	26,74
510,621	68,38
510,818	71,11
511,016	-131,64
511,214	-129,93
511,412	-15,25
511,609	137,33
511,807	-169,53
512,005	-23,44
512,203	-33,68
512,4	5,58
512,598	-120,38
512,796	-4,32
512,993	26,4
513,191	104,22
513,389	-46,65
513,586	21,96
513,784	267,03
513,981	254,74
514,179	-50,06
514,377	98,07
514,574	76,23
514,772	258,84
514,969	-191,03
515,167	106,27
515,364	-23,78
515,562	205,93
515,759	-409,48
515,957	-4,32
516,154	166,34
516,352	-49,72
516,549	-182,84
516,746	-12,86
516,944	-19
517,141	112,75
517,339	31,52
517,536	-116,96
517,733	104,9
517,931	166,68
518,128	-52,11
518,325	22,98
518,523	87,49
518,72	38,34
518,917	-151,78
519,115	-145,97
519,312	6,6
519,509	24,69
519,707	28,44
519,904	-5,01
520,101	-8,76
520,298	-10,13
520,495	-187,28
520,693	164,29
520,89	152,69
521,087	77,94
521,284	-314,25
521,481	69,4
521,678	21,28
521,876	80,33
522,073	-187,96
522,27	-48,7
522,467	37,32
522,664	192,28
522,861	-144,27
523,058	-180,11
523,255	115,14
523,452	93,98
523,649	10,35
523,846	15,13
524,043	79,98
524,24	163,95
524,437	-151,09
524,634	-21,05
524,831	148,59
525,028	74,52
525,225	54,73
525,422	-198,54
525,619	94,66
525,816	49,27
526,013	-427,91
526,209	-153,14
526,406	89,2
526,603	32,54
526,8	120,6
526,997	-110,48
527,194	72,82
527,39	67,7
527,587	99,1
527,784	-95,46
527,981	72,13
528,177	125,38
528,374	-98,87
528,571	-322,44
528,768	197,74
528,964	185,45
529,161	8,65
529,358	-222,77
529,554	196,72
529,751	153,71
529,948	217,54
530,144	-27,53
530,341	138,01
530,537	151,66
530,734	-75,66
530,931	-162,02
531,127	53,36
531,324	112,75
531,52	-93,41
531,717	69,4
531,913	-43,23
532,11	122,99
532,306	-125,15
532,503	129,48
532,699	113,78
532,896	67,7
533,092	-182,5
533,289	92,96
533,485	108,66
533,682	32,2
533,878	-192,74
534,074	-57,57
534,271	18,89
534,467	103,19
534,664	-78,73
534,86	-28,22
535,056	60,87
535,253	175,9
535,449	-157,58
535,645	-71,91
535,841	19,91
536,038	54,73
536,234	5,58
536,43	-248,37
536,626	125,04
536,823	38,68
537,019	-84,19
537,215	-143,24
537,411	84,08
537,607	23,32
537,804	-56,89
538	-121,06
538,196	-20,71
538,392	-89,31
538,588	-379,1
538,784	-231,31
538,98	-62,69
539,176	-66,45
539,373	-384,9
539,569	-380,81
539,765	-180,79
539,961	-381,49
540,157	-621,79
540,353	-534,75
540,549	-487,99
540,745	-585,61
540,941	-832,39
541,137	-868,57
541,333	-933,08
541,528	-958,68
541,724	-1127,29
541,92	-1165,52
542,116	-940,25
542,312	-1121,15
542,508	-1131,73
542,704	-1243,34
542,9	-1046,06
543,096	-975,06
543,291	-1267,92
543,487	-1132,41
543,683	-918,74
543,879	-796,89
544,075	-1146,07
544,27	-1179,52
544,466	-1214,67
544,662	-1369,29
544,858	-1481,93
545,053	-1586,38
545,249	-1260,41
545,445	-892,8
545,64	-842,28
545,836	-723,5
546,032	-470,92
546,227	-296,84
546,423	-706,09
546,619	-484,91
546,814	-203,66
547,01	-224,14
547,205	-373,3
547,401	-325,17
547,597	-209,12
547,792	-90,34
547,988	-602,67
548,183	-297,52
548,379	-267,49
548,574	-240,86
548,77	-284,21
548,965	-298,89
549,161	-43,58
549,356	-43,58
549,552	-381,15
549,747	-388,66
549,942	-177,38
550,138	-123,45
550,333	-231,65
550,529	-179,77
550,724	27,42
550,919	-53,47
551,115	-212,19
551,31	-466,14
551,505	-57,23
551,701	-43,58
551,896	-310,84
552,091	-320,05
552,287	20,25
552,482	18,89
552,677	-121,4
552,872	12,74
553,067	48,24
553,263	-30,26
553,458	17,86
553,653	-246,67
553,848	2,5
554,043	10,35
554,239	-56,89
554,434	-40,16
554,629	272,83
554,824	226,07
555,019	4,55
555,214	18,55
555,409	53,36
555,604	70,09
555,799	-43,58
555,994	-17,98
556,189	93,64
556,384	226,41
556,579	-117,64
556,774	-128,23
556,969	230,85
557,164	159,17
557,359	-126,18
557,554	-63,03
557,749	249,28
557,944	191,26
558,139	-100,24
558,334	38,68
558,529	201,16
558,724	251,67
558,918	-62,01
559,113	92,27
559,308	221,98
559,503	217,88
559,698	199,79
559,893	122,31
560,087	189,55
560,282	421,65
560,477	-187,62
560,672	99,1
560,866	241,09
561,061	334,27
561,256	-11,49
561,45	35,95
561,645	136,3
561,84	330,52
562,034	27,08
562,229	54,04
562,424	359,53
562,618	246,21
562,813	104,56
563,008	341,1
563,202	256,11
563,397	361,24
563,591	87,15
563,786	102,85
563,98	395,03
564,175	385,47
564,369	109,68
564,564	-81,8
564,758	394,01
564,953	369,09
565,147	201,16
565,342	339,74
565,536	576,62
565,731	527,47
565,925	215,83
566,119	603,58
566,314	1225,48
566,508	2211,58
566,703	2916,76
566,897	4520,32
567,091	6050,84
567,286	7339,35
567,48	7067,65
567,674	6477,16
567,868	5974,38
568,063	4389,59
568,257	2511,95
568,451	1783,21
568,646	1514,59
568,84	1133,32
569,034	943,54
569,228	636,01
569,422	817,25
569,616	748,31
569,811	658,54
570,005	266,35
570,199	637,71
570,393	584,47
570,587	205,25
570,781	446,91
570,975	687,55
571,169	563,99
571,364	40,05
571,558	122,99
571,752	427,8
571,946	563,99
572,14	228,12
572,334	204,91
572,528	483,09
572,722	544,19
572,916	274,88
573,109	162,24
573,303	641,47
573,497	638,06
573,691	110,02
573,885	302,19
574,079	551,7
574,273	552,04
574,467	268,4
574,661	411,07
574,854	538,05
575,048	542,83
575,242	272,49
575,436	278,64
575,63	543,51
575,823	320,28
576,017	268,06
576,211	412,78
576,405	584,47
576,598	638,06
576,792	360,9
576,986	258,16
577,18	588,9
577,373	556,14
577,567	327,79
577,761	302,19
577,954	503,23
578,148	429,5
578,341	370,45
578,535	232,9
578,729	616,55
578,922	594,37
579,116	428,82
579,309	435,99
579,503	512,79
579,696	659,56
579,89	212,42
580,083	447,25
580,277	715,88
580,47	910,09
580,664	756,84
580,857	1276
581,051	1622,79
581,244	1937,83
581,437	2034,77
581,631	2141,27
581,824	2469,96
582,018	2488,05
582,211	2459,72
582,404	2295,89
582,598	2217,38
582,791	1947,05
582,984	1692,76
583,178	1264,05
583,371	1538,14
583,564	1587,63
583,757	1268,49
583,951	1225,82
584,144	1698,22
584,337	1619,03
584,53	1509,13
584,723	1838,85
584,917	2138,53
585,11	2294,52
585,303	2189,05
585,496	2356,98
585,689	3054,32
585,882	3648,91
586,075	4513,5
586,268	7221,93
586,462	63074,48
586,655	62749,53
586,848	63952,03
587,041	64191,65
587,234	64324,76
587,427	64167,07
587,62	64240,8
587,813	64224,41
588,006	64146,59
588,199	64312,48
588,392	64040,1
588,585	64169,12
588,777	64435,35
588,97	64423,07
589,163	63780
589,356	63904,93
589,549	64335
589,742	64461,98
589,935	64371,87
590,128	64298,14
590,32	64359,58
590,513	64373,92
590,706	64183,45
590,899	64439,45
591,092	64357,53
591,284	64457,88
591,477	64152,73
591,67	64113,82
591,863	64339,1
592,055	64521,37
592,248	63892,64
592,441	64085,15
592,633	64414,87
592,826	64400,54
593,019	64232,61
593,211	64011,43
593,404	64480,41
593,596	64441,5
593,789	64242,85
593,982	64150,69
594,174	64537,75
594,367	64492,7
594,559	64175,26
594,752	64511,13
594,944	64494,75
595,137	64439,45
595,329	64226,46
595,522	64154,78
595,714	64507,03
595,907	64373,92
596,099	64275,61
596,292	64339,1
596,484	64519,32
596,676	64490,65
596,869	64038,05
597,061	63882,4
597,253	64500,89
597,446	64480,41
597,638	64279,71
597,83	64240,8
598,023	64502,94
598,215	64650,39
598,407	64267,42
598,6	64486,55
598,792	64392,35
598,984	64421,02
599,176	64267,42
599,369	64056,48
599,561	64421,02
599,753	64591
599,945	63999,14
600,137	64388,25
600,329	64388,25
600,522	64560,28
600,714	64423,07
600,906	64470,17
601,098	64390,3
601,29	64607,38
601,482	64275,61
601,674	64242,85
601,866	64445,59
602,058	64511,13
602,25	64134,3
602,442	64003,23
602,634	64554,14
602,826	64500,89
603,018	64265,37
603,21	64103,58
603,402	64461,98
603,594	64552,09
603,786	64210,08
603,978	63980,71
604,17	64619,67
604,362	64476,31
604,554	64070,82
604,745	64109,73
604,937	64421,02
605,129	64451,74
605,321	64337,05
605,513	64324,76
605,704	64533,66
605,896	64392,35
606,088	64203,93
606,28	64283,8
606,471	64230,56
606,663	64478,36
606,855	64507,03
607,047	64171,17
607,238	64474,27
607,43	64367,77
607,622	63898,79
607,813	64167,07
608,005	64429,21
608,197	64177,31
608,388	64093,34
608,58	64171,17
608,771	64093,34
608,963	64152,73
609,154	63876,26
609,346	63679,65
609,537	63683,75
609,729	63634,6
609,921	62915,76
610,112	63024,3
610,303	63306,92
610,495	29469,02
610,686	6364,18
610,878	-318
611,069	-139,83
611,261	-159,97
611,452	-172,26
611,643	-250,76
611,835	-107,06
612,026	-1,93
612,217	-275,34
612,409	-69,86
612,6	162,24
612,791	139,72
612,983	-194,1
613,174	-280,46
613,365	286,83
613,557	419,26
613,748	384,45
613,939	509,72
614,13	1140,15
614,321	1533,7
614,513	1107,72
614,704	1175,99
614,895	1478,06
615,086	1288,97
615,277	724,41
615,468	530,88
615,659	530,88
615,851	592,32
616,042	137,33
616,233	90,22
616,424	319,26
616,615	255,43
616,806	201,16
616,997	292,29
617,188	396,05
617,379	260,21
617,57	-90,68
617,761	16,16
617,952	171,8
618,143	213,44
618,334	67,36
618,524	39,71
618,715	210,03
618,906	389,91
619,097	48,58
619,288	334,27
619,479	114,12
619,67	267,37
619,86	214,81
620,051	-3,64
620,242	146,54
620,433	226,07
620,624	-69,52
620,814	-31,97
621,005	189,55
621,196	149,27
621,386	-84,54
621,577	-24,12
621,768	291,95
621,958	230,17
622,149	121,29
622,34	27,42
622,53	306,29
622,721	219,93
622,912	-131,98
623,102	10,01
623,293	240,75
623,483	298,09
623,674	-67,47
623,864	69,4
624,055	227,1
624,245	246,21
624,436	255,09
624,626	148,93
624,817	293,66
625,007	326,08
625,198	152,35
625,388	81,01
625,579	297,07
625,769	324,03
625,959	-53,82
626,15	-49,72
626,34	210,37
626,531	126,41
626,721	-71,91
626,911	178,29
627,101	382,74
627,292	350,66
627,482	65,31
627,672	116,85
627,863	317,21
628,053	128,45
628,243	-54,84
628,433	256,11
628,623	324,72
628,814	373,19
629,004	0,8
629,194	94,32
629,384	40,73
629,574	279,32
629,764	-267,49
629,955	-147,34
630,145	42,1
630,335	155,42
630,525	167,36
630,715	-86,92
630,905	157,12
631,095	247,92
631,285	36,98
631,475	174,53
631,665	147,91
631,855	332,91
632,045	214,47
632,235	192,28
632,425	300,14
632,615	446,91
632,805	-12,52
632,994	123,33
633,184	144,15
633,374	362,6
633,564	21,28
633,754	104,9
633,944	300,48
634,133	258,84
634,323	36,64
634,513	17,18
634,703	356,12
634,893	320,96
635,082	-12,86
635,272	134,6
635,462	314,82
635,651	310,38
635,841	-29,24
636,031	139,38
636,221	285,12
636,41	351
636,6	215,49
636,789	33,91
636,979	310,72
637,169	264,98
637,358	269,08
637,548	2,5
637,737	245,53
637,927	316,52
638,116	161,56
638,306	107,97
638,495	259,52
638,685	411,41
638,874	188,53
639,064	-12,17
639,253	270,79
639,443	260,21
639,632	159,51
639,822	215,49
640,011	183,75
640,2	281,71
640,39	-66,79
640,579	22,98
640,768	343,83
640,958	311,75
641,147	243,14
641,336	134,94
641,526	143,13
641,715	219,25
641,904	-95,8
642,093	185,11
642,283	182,04
642,472	175,22
642,661	196,72
642,85	-108,77
643,039	345,88
643,228	249,28
643,418	7,28
643,607	34,59
643,796	67,36
643,985	251,67
644,174	9,33
644,363	-58,25
644,552	195,69
644,741	284,1
644,93	190,92
645,119	-76
645,308	280,34
645,497	148,93
645,686	-159,97
645,875	153,37
646,064	205,93
646,253	255,09
646,442	-148,71
646,631	137,67
646,82	170,1
647,009	205,25
647,198	36,98
647,387	190,92
647,575	279,66
647,764	358,51
647,953	-29,24
648,142	-24,8
648,331	374,89
648,519	292,63
648,708	-82,15
648,897	51,65
649,086	159,51
649,274	214,47
649,463	112,75
649,652	-315,61
649,84	115,82
650,029	171,46
650,218	-15,93
650,406	-34,02
650,595	226,76
650,784	222,32
650,972	-54,16
651,161	0,8
651,349	249,62
651,538	41,76
651,726	-33,34
651,915	-79,76
652,104	145,86
652,292	287,51
652,481	-96,14
652,669	-295,48
652,857	325,06
653,046	203,2
653,234	-0,57
653,423	-205,37
653,611	231,53
653,8	260,55
653,988	-16,61
654,176	115,14
654,365	267,03
654,553	97,39
654,741	-124,13
654,93	29,13
655,118	191,26
655,306	159,51
655,494	110,36
655,683	59,16
655,871	239,04
656,059	155,08
656,247	186,14
656,436	-44,26
656,624	83,06
656,812	195,01
657	115,82
657,188	-192,74
657,376	301,17
657,564	17,18
657,753	57,12
657,941	159,17
658,129	145,52
658,317	213,44
658,505	137,67
658,693	94,32
658,881	340,42
659,069	94,66
659,257	96,71
659,445	-53,82
659,633	45,51
659,821	239,04
660,009	-63,03
660,197	85,79
660,384	149,27
660,572	232,9
660,76	-134,03
660,948	-31,63
661,136	199,45
661,324	201,5
661,512	-137,1
661,699	78,28
661,887	139,38
662,075	41,76
662,263	8,65
662,451	25,37
662,638	203,89
662,826	262,94
663,014	-271,92
663,201	-94,09
663,389	265,67
663,577	159,86
663,764	-121,4
663,952	73,84
664,14	103,54
664,327	178,97
664,515	-71,22
664,702	-92,73
664,89	276,59
665,078	210,71
665,265	51,31
665,453	-29,24
665,64	235,97
665,828	160,2
666,015	1,82
666,203	37,32
666,39	188,19
666,578	138,35
666,765	40,39
666,952	-385,59
667,14	31,86
667,327	155,08
667,515	-72,25
667,702	-49,38
667,889	179,99
668,077	227,44
668,264	-270,22
668,451	-149,05
668,638	156,1
668,826	283,07
669,013	-94,09
669,2	-201,95
669,388	230,17
669,575	58,82
669,762	170,44
669,949	-162,02
670,136	-3982,16
670,323	163,95
670,511	-45,97
670,698	22,98
670,885	136,3
671,072	157,81
671,259	-175,33
671,446	72,13
671,633	93,3
671,82	250,31
672,007	79,98
672,194	-82,15
672,381	200,13
672,568	257,13
672,755	-35,04
672,942	-119,35
673,129	263,96
673,316	229,49
673,503	-66,79
673,69	44,15
673,877	201,5
674,064	169,75
674,251	-75,66
674,437	-104,33
674,624	10,01
674,811	141,76
674,998	59,85
675,185	-47,33
675,372	7,28
675,558	121,97
675,745	-68,15
675,932	-155,87
676,119	195,69
676,305	33,56
676,492	-165,09
676,679	-68,49
676,865	148,25
677,052	93,98
677,239	110,36
677,425	-10,81
677,612	271,47
677,798	135,62
677,985	-161,68
678,172	-139,49
678,358	130,5
678,545	119,58
678,731	-68,83
678,918	32,2
679,104	177,95
679,291	210,71
679,477	116,51
679,664	-57,23
679,85	243,82
680,036	128,11
680,223	60,87
680,409	12,74
680,596	187,84
680,782	29,81
680,968	-196,15
681,155	3,53
681,341	104,22
681,527	141,42
681,714	-13,88
681,9	93,98
682,086	229,14
682,272	101,49
682,459	89,2
682,645	-326,54
682,831	198,08
683,017	114,12
683,204	-296,16
683,39	-6,37
683,576	141,76
683,762	206,62
683,948	-74,98
684,134	166,34
684,32	141,76
684,506	92,27
684,693	-222,77
684,879	184,09
685,065	213,79
685,251	224,03
685,437	46,19
685,623	-69,18
685,809	132,21
685,995	227,78
686,181	-124,47
686,366	-40,5
686,552	79,98
686,738	203,89
686,924	-145,63
687,11	-10,81
687,296	112,41
687,482	211,05
687,668	141,08
687,853	132,89
688,039	135,28
688,225	163,61
688,411	-74,98
688,597	-226,19
688,782	95,34
688,968	294,68
689,154	-158,95
689,34	-363,74
689,525	173,17
689,711	278,98
689,897	-486,96
690,082	-37,09
690,268	160,2
690,454	254,06
690,639	-71,57
690,825	-283,87
691,01	57,46
691,196	259,86
691,381	-181,81
691,567	-60,98
691,753	207,3
691,938	203,55
692,124	82,03
692,309	30,15
692,494	110,02
692,68	153,03
692,865	5,92
693,051	-157,24
693,236	193,99
693,422	186,14
693,607	74,18
693,792	-94,43
693,978	248,26
694,163	540,78
694,348	892,69
694,534	1758,98
694,719	3063,19
694,904	3623,99
695,089	3493,95
695,275	3298,71
695,46	2811,63
695,645	1649,07
695,83	1020,68
696,016	763,66
696,201	699,84
696,386	531,9
696,571	133,91
696,756	253,04
696,941	320,96
697,126	455,79
697,311	145,86
697,497	-50,74
697,682	182,72
697,867	224,37
698,052	-50,06
698,237	-309,81
698,422	99,1
698,607	232,56
698,792	-84,88
698,977	-103,31
699,162	47,56
699,347	247,24
699,531	-104,33
699,716	-107,06
699,901	123,33
700,086	165,66
700,271	-64,74
700,456	-280,46
700,641	222,32
700,825	138,01
701,01	-284,21
701,195	-100,58
701,38	113,78
701,565	368,41
701,749	-81,8
701,934	58,82
702,119	199,79
702,303	201,84
702,488	-182,16
702,673	-325,85
702,857	65,65
703,042	199,11
703,227	-174,3
703,411	-77,03
703,596	52,68
703,78	106,95
703,965	-31,29
704,15	-12,52
704,334	250,65
704,519	796,43
704,703	1192,03
704,888	1745,32
705,072	2228,99
705,257	2279,16
705,441	2093,48
705,625	979,73
705,81	1082,47
705,994	817,94
706,179	217,88
706,363	211,4
706,547	421,65
706,732	267,03
706,916	-30,95
707,1	73,16
707,285	160,88
707,469	259,18
707,653	-97,85
707,837	-46,99
708,022	181,02
708,206	185,8
708,39	81,69
708,574	-159,63
708,759	150,3
708,943	239,04
709,127	-170,89
709,311	-209,8
709,495	207,64
709,679	101,15
709,863	-98,87
710,047	-157,24
710,231	70,77
710,415	182,72
710,6	-277,73
710,784	11,72
710,968	-30,26
711,152	174,19
711,336	-26,85
711,519	-186,93
711,703	31,52
711,887	81,01
712,071	-81,12
712,255	41,41
712,439	30,49
712,623	227,44
712,807	75,89
712,991	63,94
713,174	403,56
713,358	281,37
713,542	-26,17
713,726	58,82
713,91	240,41
714,093	311,75
714,277	-34,7
714,461	-192,05
714,645	175,56
714,828	249,62
715,012	18,55
715,196	45,85
715,379	159,51
715,563	93,3
715,747	-144,61
715,93	-121,4
716,114	128,79
716,297	283,76
716,481	-9,1
716,664	-112,18
716,848	214,13
717,031	153,03
717,215	70,43
717,398	-100,92
717,582	130,5
717,765	10,69
717,949	0,11
718,132	-114,23
718,316	234,61
718,499	231,53
718,682	-277,39
718,866	46,88
719,049	177,6
719,233	118,21
719,416	-151,44
719,599	-275
719,782	218,22
719,966	269,08
720,149	-6,03
720,332	-244,28
720,515	161,22
720,699	161,22
720,882	-114,57
721,065	-10,81
721,248	208,32
721,431	248,94
721,615	-13,88
721,798	-217,31
721,981	71,11
722,164	249,28
722,347	-127,54
722,53	-314,59
722,713	192,62
722,896	161,22
723,079	-94,09
723,262	-172,94
723,445	34,25
723,628	216,52
723,811	7,28
723,994	-11,83
724,177	145,52
724,36	161,9
724,543	-98,87
724,726	49,27
724,909	270,1
725,091	284,1
725,274	516,2
725,457	737,04
725,64	1003,62
725,823	957,2
726,006	701,54
726,188	537,36
726,371	297,75
726,554	374,89
726,737	101,49
726,919	32,2
727,102	224,71
727,285	268,4
727,467	-52,79
727,65	-90,68
727,833	293,31
728,015	206,96
728,198	-34,02
728,38	-50,74
728,563	171,8
728,746	207,64
728,928	-47,67
729,111	28,44
729,293	159,86
729,476	107,29
729,658	-66,79
729,841	17,52
730,023	52,34
730,205	227,44
730,388	-147
730,57	-114,57
730,753	160,2
730,935	238,36
731,117	-259,3
731,3	6,94
731,482	213,1
731,664	139,03
731,847	-62,01
732,029	-184,54
732,211	159,51
732,394	271,13
732,576	-88,29
732,758	-278,75
732,94	102,85
733,122	183,07
733,305	-346,33
733,487	10,69
733,669	121,97
733,851	241,43
734,033	-145,63
734,215	-106,38
734,397	127,09
734,58	90,91
734,762	-82,49
734,944	-153,14
735,126	170,1
735,308	257,13
735,49	116,51
735,672	29,81
735,854	377,62
736,036	756,16
736,218	949,69
736,399	2135,12
736,581	3261,85
736,763	3757,11
736,945	3366,63
737,127	3248,19
737,309	2521,85
737,491	1600,94
737,672	963
737,854	585,49
738,036	541,8
738,218	542,48
738,4	440,09
738,581	59,85
738,763	288,19
738,945	349,63
739,127	-27,53
739,308	-133,35
739,49	96,03
739,672	209,35
739,853	-183,52
740,035	30,83
740,216	225,73
740,398	263,96
740,58	-36,41
740,761	-69,86
740,943	63,94
741,124	146,2
741,306	-75,66
741,487	-92,04
741,669	163,61
741,85	140,4
742,032	-144,95
742,213	-2,62
742,394	168,05
742,576	223,68
742,757	-310,84
742,939	-247,35
743,12	153,37
743,301	219,59
743,483	55,07
743,664	-70,2
743,845	118,9
744,027	221,64
744,208	4,89
744,389	-108,77
744,57	276,59
744,752	93,98
744,933	-51,09
745,114	9,33
745,295	170,44
745,476	75,21
745,657	-11,15
745,839	10,69
746,02	191,6
746,201	170,78
746,382	-177,72
746,563	-279,09
746,744	113,78
746,925	216,86
747,106	-66,45
747,287	-227,21
747,468	206,96
747,649	92,96
747,83	12,06
748,011	199,79
748,192	1220,7
748,373	2011,22
748,554	2698,65
748,735	2947,48
748,915	3544,12
749,096	3279,59
749,277	2966,6
749,458	3010,63
749,639	3807,97
749,82	3965,66
750	3715,13
750,181	3000,73
750,362	2547,1
750,543	1524,14
750,723	845,58
750,904	670,48
751,085	641,81
751,265	486,85
751,446	209,01
751,627	147,23
751,807	278,64
751,988	213,79
752,169	-91,02
752,349	30,15
752,53	217,2
752,71	215,83
752,891	-320,39
753,071	-105,7
753,252	257,48
753,432	264,98
753,613	-57,23
753,793	-101,94
753,974	236,31
754,154	157,81
754,334	-128,23
754,515	172,83
754,695	51,31
754,876	130,84
755,056	-416,31
755,236	-83,51
755,417	107,63
755,597	174,87
755,777	-91,36
755,957	-153,83
756,138	149,96
756,318	217,2
756,498	-40,16
756,678	-60,64
756,859	21,62
757,039	142,79
757,219	-129,93
757,399	6,26
757,579	220,27
757,759	260,55
757,939	173,17
758,119	-386,61
758,3	216,52
758,48	169,07
758,66	-21,73
758,84	41,41
759,02	81,69
759,2	300,48
759,38	-125,49
759,56	-196,49
759,74	116,17
759,919	212,76
760,099	-206,05
760,279	-155,53
760,459	69,4
760,639	222,32
760,819	45,85
760,999	1107,72
761,178	3257,75
761,358	6747,15
761,538	11031,16
761,718	14646,5
761,898	16374,65
762,077	16141,18
762,257	13306,45
762,437	9464,8
762,616	6241,3
762,796	4180,7
762,976	2717,43
763,155	1912,58
763,335	1580,12
763,515	1065,4
763,694	387,86
763,874	545,56
764,053	1022,73
764,233	2169,25
764,413	3598,39
764,592	5269,88
764,772	6538,25
764,951	7130,8
765,131	6262,46
765,31	4725,46
765,489	3324,99
765,669	2267,56
765,848	1230,26
766,028	980,75
766,207	770,49
766,386	553,75
766,566	353,39
766,745	155,08
766,924	104,56
767,104	294
767,283	190,23
767,462	249,62
767,642	1371,91
767,821	2480,55
768	3584,4
768,179	4080,35
768,358	4366,72
768,538	4142,47
768,717	2941
768,896	1928,96
769,075	1352,8
769,254	1093,39
769,433	458,18
769,612	191,94
769,791	669,8
769,97	960,61
770,149	1672,28
770,328	3280,96
770,507	4853,12
770,686	5900,99
770,865	5746,71
771,044	5402,66
771,223	4476,63
771,402	2966,26
771,581	1594,12
771,76	1289,99
771,939	804,62
772,118	737,38
772,297	237,68
772,475	221,64
772,654	285,46
772,833	407,32
773,012	-290,02
773,191	-183,18
773,369	156,44
773,548	165,32
773,727	244,16
773,906	-285,92
774,084	129,14
774,263	224,71
774,442	-10,47
774,62	18,55
774,799	160,2
774,977	49,27
775,156	-170,55
775,335	-156,56
775,513	202,86
775,692	220,95
775,87	-437,13
776,049	-22,76
776,227	210,37
776,406	257,13
776,584	8,65
776,763	-199,56
776,941	244,85
777,119	146,88
777,298	113,78
777,476	-269,19
777,655	254,06
777,833	288,88
778,011	-250,08
778,19	-141,2
778,368	139,38
778,546	296,39
778,725	-306,4
778,903	13,08
779,081	200,47
779,259	286,83
779,437	-44,6
779,616	-8,76
779,794	171,46
779,972	324,72
780,15	-25,14
780,328	-91,7
780,506	121,63
780,685	200,13
780,863	-7,05
781,041	115,14
781,219	175,9
781,397	172,48
781,575	-151,78
781,753	-8,42
781,931	158,83
782,109	224,37
782,287	-38,11
782,465	-108,77
782,643	100,81
782,82	121,97
782,998	-295,82
783,176	-216,97
783,354	274,2
783,532	282,73
783,71	-100,24
783,888	-125,84
784,065	135,62
784,243	165,32
784,421	-49,72
784,599	-116,96
784,776	147,57
784,954	215,83
785,132	-108,43
785,31	10,35
785,487	156,44
785,665	145,52
785,842	-115,94
786,02	-432,35
786,198	224,03
786,375	258,16
786,553	-95,12
786,73	-68,83
786,908	195,01
787,085	178,97
787,263	7,96
787,44	-5,01
787,618	167,36
787,795	298,78
787,973	121,29
788,15	-65,42
788,328	140,4
788,505	49,27
788,682	-180,45
788,86	22,3
789,037	164,63
789,215	186,48
789,392	-30,95
789,569	-181,81
789,746	156,44
789,924	177,26
790,101	-204,34
790,278	-223,8
790,455	238,36
790,633	157,81
790,81	-134,03
790,987	-54,16
791,164	195,01
791,341	182,04
791,518	113,78
791,695	-71,57
791,873	213,79
792,05	280,69
792,227	48,24
792,404	364,99
792,581	1125,47
792,758	2021,12
792,935	2557,34
793,112	2818,12
793,289	3218,5
793,466	2780,91
793,643	2086,31
793,82	1396,49
793,996	863,67
794,173	640,45
794,35	358,17
794,527	-48,35
794,704	170,78
794,881	246,21
795,057	-34,02
795,234	182,38
795,411	249,97
795,588	158,49
795,765	179,65
795,941	-15,59
796,118	218,22
796,295	253,04
796,471	-177,04
796,648	17,18
796,825	76,23
797,001	276,25
797,178	-254,86
797,354	-224,14
797,531	166
797,708	197,4
797,884	-194,44
798,061	135,62
798,237	599,83
798,414	1031,95
798,59	1033,66
798,767	1533,02
798,943	2174,72
799,119	2550,18
799,296	2741,32
799,472	3054,32
799,649	3699,09
799,825	3521,25
800,001	3284,71
800,178	2789,11
800,354	2067,2
800,53	1352,8
800,707	801,21
800,883	515,52
801,059	580,37
801,235	105,93
801,411	205,93
801,588	269,42
801,764	218,22
801,94	246,21
802,116	78,62
802,292	69,74
802,468	187,16
802,645	220,61
802,821	-222,77
802,997	-48,7
803,173	147,91
803,349	281,37
803,525	3,19
803,701	-46,65
803,877	206,62
804,053	189,55
804,229	53,36
804,405	-193,08
804,581	290,58
804,756	315,5
804,932	69,74
805,108	31,52
805,284	238,7
805,46	265,67
805,636	-27,88
805,812	81,01
805,987	245,19
806,163	233,24
806,339	-2506,6
806,515	121,63
806,69	209,01
806,866	239,38
807,042	-163,38
807,217	-10,81
807,393	185,45
807,569	329,5
807,744	-151,09
807,92	78,62
808,096	1507,76
808,271	2388,39
808,447	3159,79
808,622	3683,04
808,798	4089,22
808,973	4245,89
809,149	4288,9
809,324	5429,62
809,5	7687,16
809,675	9356,26
809,851	9977,48
810,026	9738,21
810,201	8588,95
810,377	6188,39
810,552	3677,58
810,728	2064,47
810,903	1742,94
811,078	1283,17
811,253	613,82
811,429	757,86
811,604	789,95
811,779	611,43
811,955	203,55
812,13	176,24
812,305	294,68
812,48	269,08
812,655	-222,09
812,83	-192,74
813,006	241,09
813,181	226,41
813,356	157,47
813,531	195,01
813,706	257,13
813,881	330,18
814,056	69,74
814,231	-140,51
814,406	188,87
814,581	416,88
814,756	0,46
814,931	2,16
815,106	264,64
815,281	254,74
815,456	-158,6
815,631	200,47
815,805	1193,06
815,98	2640,29
816,155	4793,38
816,33	7266,99
816,505	9492,79
816,68	10295,59
816,854	10353,96
817,029	10207,19
817,204	11202,84
817,379	13078,44
817,553	15314,14
817,728	17478,84
817,903	17964,55
818,077	16171,22
818,252	12496,14
818,427	7970,47
818,601	5273,97
818,776	3573,48
818,95	2536,86
819,125	1561,69
819,299	1573,98
819,474	1137,42
819,648	719,29
819,823	339,39
819,997	615,53
820,172	619,62
820,346	125,04
820,521	54,73
820,695	307,65
820,87	390,59
821,044	81,69
821,218	13,08
821,393	173,51
821,567	327,11
821,741	-2,28
821,916	4,21
822,09	156,44
822,264	361,24
822,438	71,79
822,613	6,26
822,787	170,1
822,961	284,78
823,135	-212,53
823,309	44,49
823,483	237
823,658	253,04
823,832	-112,52
824,006	520,98
824,18	943,89
824,354	1507,42
824,528	1696,51
824,702	1782,53
824,876	2242,64
825,05	1978,45
825,224	1298,87
825,398	690,28
825,572	839,1
825,746	601,19
825,92	-31,63
826,093	138,01
826,267	349,98
826,441	411,07
826,615	-136,42
826,789	-163,04
826,963	323,01
827,136	281,37
827,31	-11,49
827,484	151,32
827,658	318,57
827,831	211,05
828,005	-1,93
828,179	159,51
828,353	187,5
828,526	246,21
828,7	-13,54
828,873	143,47
829,047	130,5
829,221	274,88
829,394	-89,31
829,568	-63,37
829,741	266,01
829,915	320,96
830,088	-272,95
830,262	-323,12
830,435	201,16
830,609	129,48
830,782	-87,27
830,956	-86,92
831,129	174,87
831,302	307,31
831,476	40,05
831,649	64,62
831,822	188,19
831,996	129,14
832,169	-291,04
832,342	212,76
832,516	324,72
832,689	372,5
832,862	-141,54
833,035	-279,78
833,209	-4,32
833,382	200,13
833,555	170,78
833,728	79,3
833,901	189,21
834,074	258,16
834,247	5,92
834,42	-97,85
834,594	182,72
834,767	155,42
834,94	-208,44
835,113	-100,58
835,286	99,1
835,459	179,31
835,632	5,58
835,805	7,96
835,977	128,79
836,15	108,31
836,323	36,64
836,496	-191,37
836,669	107,63
836,842	188,53
837,015	-195,81
837,188	-51,09
837,36	149,62
837,533	166,34
837,706	-119,69
837,879	-89,31
838,051	278,64
838,224	276,25
838,397	385,81
838,569	679,02
838,742	1647,7
838,915	2240,59
839,087	2161,06
839,26	2251,51
839,433	2358,69
839,605	1924,86
839,778	1500,93
839,95	974,95
840,123	1473,63
840,295	1824,51
840,468	2504,44
840,64	2863,17
840,813	3478,25
840,985	3207,23
841,158	2584,99
841,33	1882,88
841,502	1615,62
841,675	1150,39
841,847	414,14
842,019	323,01
842,192	568,08
842,364	466,37
842,536	255,09
842,709	83,74
842,881	330,52
843,053	212,76
843,225	40,39
843,398	-200,59
843,57	176,58
843,742	255,09
843,914	-26,17
844,086	-278,07
844,258	221,98
844,43	112,41
844,602	-185,57
844,775	26,4
844,947	237
845,119	229,14
845,291	-312,2
845,463	-288,99
845,635	237,68
845,807	151,32
845,979	-133,35
846,15	-180,45
846,322	203,2
846,494	248,94
846,666	2,16
846,838	-139,15
847,01	276,25
847,182	230,51
847,354	-110,48
847,525	-149,39
847,697	219,93
847,869	177,95
848,041	-163,72
848,212	-201,27
848,384	305,94
848,556	240,41
848,727	-182,84
848,899	110,02
849,071	175,22
849,242	149,96
849,414	-162,02
849,585	0,11
849,757	361,92
849,929	375,23
850,1	472,17
850,272	401,52
850,443	831,93
850,615	804,28
850,786	678,33
850,958	558,19
851,129	586,86
851,3	549,65
851,472	123,33
851,643	128,11
851,815	238,36
851,986	227,44
852,157	-133
852,329	-379,1
852,5	358,51
852,671	107,29
852,842	-89,31
853,014	51,65
853,185	278,98
853,356	166,68
853,527	-170,89
853,698	-114,91
853,87	111,05
854,041	118,9
854,212	-163,38
854,383	-98,87
854,554	226,07
854,725	242,8
854,896	-146,32
855,067	-80,78
855,238	233,24
855,409	89,54
855,58	-48,01
855,751	-345,99
855,922	158,49
856,093	-384,22
856,264	83,4
856,435	-73,61
856,606	232,56
856,777	211,4
856,948	-124,47
857,118	34,93
857,289	187,5
857,46	17,18
857,631	-115,26
857,802	-133
857,972	223,68
858,143	155,42
858,314	3,87
858,484	97,39
858,655	246,21
858,826	130,5
858,996	-57,57
859,167	-317,66
859,338	280
859,508	80,33
859,679	-86,58
859,849	8,99
860,02	284,1
860,19	86,81
860,361	-257,25
860,531	11,72
860,702	176,92
860,872	109,68
861,043	13,43
861,213	-209,8
861,384	130,5
861,554	90,57
861,724	105,93
861,895	-12,86
862,065	-12,52
862,235	173,17
862,406	-140,51
862,576	-18,66
862,746	134,94
862,916	92,27
863,087	-277,04
863,257	-116,96
863,427	244,85
863,597	263,28
863,767	-170,21
863,937	55,41
864,108	123,33
864,278	176,92
864,448	-262,03
864,618	-199,56
864,788	238,7
864,958	199,45
865,128	22,98
865,298	-2,28
865,468	311,75
865,638	347,59
865,808	-60,98
865,978	-278,75
866,148	156,78
866,318	307,65
866,487	-179,77
866,657	-19
866,827	130,84
866,997	318,91
867,167	-290,36
867,337	-119,35
867,506	207,3
867,676	193,99
867,846	-24,12
868,016	-244,28
868,185	233,92
868,355	107,97
868,525	-110,48
868,694	-98,19
868,864	225,39
869,034	48,92
869,203	-171,92
869,373	-172,26
869,542	232,9
869,712	220,61
869,881	-153,83
870,051	-47,67
870,22	203,89
870,39	170,1
870,559	-101,94
870,729	157,47
870,898	159,17
871,068	277,27
871,237	14,11
871,406	41,76
871,576	81,69
871,745	203,55
871,914	-12,86
872,084	-82,49
872,253	221,64
872,422	155,76
872,591	-254,52
872,761	71,79
872,93	301,17
873,099	130,16
873,268	-63,71
873,437	136,3
873,607	281,03
873,776	53,36
873,945	-152,8
874,114	48,92
874,283	210,71
874,452	71,11
874,621	-147,68
874,79	-175,67
874,959	289,22
875,128	88,86
875,297	-205,71
875,466	-235,4
875,635	231,88
875,804	116,17
875,973	-14,9
876,142	-231,99
876,31	234,26
876,479	211,74
876,648	-115,6
876,817	39,03
876,986	248,94
877,155	100,12
877,323	100,12
877,492	-178,06
877,661	186,14
877,829	61,21
877,998	-67,81
878,167	-188,3
878,335	249,28
878,504	150,98
878,673	-36,41
878,841	133,57
879,01	154,05
879,178	206,62
879,347	-152,46
879,515	-23,78
879,684	84,08
879,852	181,02
880,021	-70,2
880,189	-162,7
880,358	174,19
880,526	-65,08
880,695	73,84
880,863	-181,13
881,031	207,3
881,2	281,71
881,368	30,15
881,536	-334,05
881,705	227,78
881,873	274,2
882,041	-155,19
882,21	-113,55
882,378	210,71
882,546	156,44
882,714	-91,36
882,882	30,15
883,05	67,7
883,219	81,35
883,387	24,01
883,555	2,5
883,723	205,93
883,891	285,81
884,059	76,23
884,227	-209,8
884,395	173,17
884,563	233,24
884,731	-109,45
884,899	-251,79
885,067	187,16
885,235	176,24
885,403	-211,17
885,571	-182,5
885,739	299,46
