Data from Na 3_Subt6__0__13-46-54-289.txt Node

Date: Tue Feb 02 13:46:54 CET 2021
User: Praktikum
Spectrometer: USB4F03543
Trigger mode: 4
Integration Time (sec): 1,000000E-1
Scans to average: 6
Electric dark correction enabled: true
Nonlinearity correction enabled: false
Boxcar width: 0
XAxis mode: Wavelengths
Number of Pixels in Spectrum: 3648
>>>>>Begin Spectral Data<<<<<
179,969	568,62
180,181	568,62
180,394	568,62
180,606	555,65
180,819	526,98
181,031	-211,31
181,243	-307,91
181,456	159,03
181,668	223,88
181,88	-264,22
182,093	-41,67
182,305	259,04
182,518	275,08
182,73	-391,87
182,942	-163,18
183,155	237,88
183,367	225,25
183,579	-316,44
183,791	-247,83
184,004	241,97
184,216	235,49
184,428	-117,79
184,641	-144,07
184,853	282,59
185,065	276,45
185,277	-207,56
185,49	-237,25
185,702	272,35
185,914	202,04
186,126	-78,88
186,338	-170,69
186,551	378,5
186,763	211,59
186,975	45,37
187,187	-237,59
187,399	286
187,612	271,67
187,824	-42,01
188,036	-205,17
188,248	148,11
188,46	295,9
188,672	-211,31
188,885	-60,78
189,097	274,4
189,309	225,25
189,521	-89,8
189,733	-250,22
189,945	307,17
190,157	193,5
190,369	-166,94
190,581	-37,57
190,794	196,24
191,006	220,81
191,218	-60,44
191,43	-141,68
191,642	248,12
191,854	241,97
192,066	-302,1
192,278	-170,35
192,49	320,82
192,702	132,07
192,914	-148,51
193,126	-131,78
193,338	326,62
193,55	317,41
193,762	-143,39
193,974	155,62
194,186	280,88
194,398	219,79
194,61	-56,01
194,822	-206,19
195,034	207,16
195,246	13,62
195,457	-161,48
195,669	-304,49
195,881	291,12
196,093	264,5
196,305	-186,73
196,517	114,66
196,729	302,39
196,941	201,7
197,153	-300,06
197,365	-363,54
197,576	316,04
197,788	300
198	-227,01
198,212	-443,76
198,424	265,18
198,636	252,9
198,847	47,76
199,059	-196,63
199,271	312,29
199,483	216,37
199,695	-130,42
199,906	-211,31
200,118	181,9
200,33	215,01
200,542	-560,49
200,753	-103,45
200,965	356,66
201,177	299,66
201,389	-154,99
201,6	56,97
201,812	218,08
202,024	253,58
202,235	27,96
202,447	-337,26
202,659	307,51
202,871	280,54
203,082	-167,28
203,294	-59,42
203,506	285,32
203,717	297,27
203,929	-165,91
204,141	30,35
204,352	341,3
204,564	150,84
204,775	-161,82
204,987	-359,79
205,199	312,63
205,41	209,89
205,622	-206,87
205,833	-168,64
206,045	234,46
206,257	216,71
206,468	13,62
206,68	-78,53
206,891	236,85
207,103	190,77
207,314	-53,28
207,526	-264,22
207,737	315,36
207,949	179,17
208,16	-153,63
208,372	-96,97
208,583	259,38
208,795	231,05
209,006	-120,86
209,218	-246,13
209,429	269,28
209,641	157,67
209,852	-87,41
210,064	-219,84
210,275	271,67
210,487	199,31
210,698	-253,29
210,909	-254,66
211,121	256,65
211,332	246,07
211,544	-320,54
211,755	-350,91
211,966	149,47
212,178	209,89
212,389	-398,7
212,6	-118,13
212,812	83,6
213,023	312,97
213,234	-184,35
213,446	-220,19
213,657	264,16
213,868	306,14
214,08	-457,41
214,291	-194,93
214,502	236,51
214,714	190,43
214,925	-130,76
215,136	-101,06
215,347	185,31
215,559	209,55
215,77	63,12
215,981	-368,66
216,192	325,26
216,404	242,66
216,615	-286,4
216,826	-213,36
217,037	165,17
217,249	334,47
217,46	-392,9
217,671	-127
217,882	325,6
218,093	340,96
218,304	-200,05
218,516	-180,25
218,727	269,96
218,938	249,82
219,149	-390,17
219,36	-261,14
219,571	317,41
219,782	234,46
219,993	-369
220,205	-27,68
220,416	205,45
220,627	163,81
220,838	-232,47
221,049	-542,4
221,26	388,4
221,471	265,18
221,682	-164,89
221,893	-231,45
222,104	210,91
222,315	288,74
222,526	70,29
222,737	-147,48
222,948	284,64
223,159	230,37
223,37	-107,89
223,581	-55,32
223,792	240,61
224,003	178,83
224,214	18,74
224,425	-207,21
224,636	290,44
224,847	198,28
225,058	-142,36
225,269	-179,57
225,48	326,96
225,691	312,63
225,902	-255
226,112	-38,6
226,323	324,92
226,534	245,05
226,745	-113,35
226,956	-43,38
227,167	237,54
227,378	244,02
227,589	-30,41
227,799	-376,17
228,01	331,74
228,221	278,5
228,432	-144,75
228,643	49,81
228,853	229,69
229,064	182,58
229,275	-151,58
229,486	-44,4
229,697	265,87
229,907	215,35
230,118	-87,07
230,329	116,36
230,54	285,66
230,75	191,8
230,961	-253,29
231,172	-96,28
231,383	252,55
231,593	291,81
231,804	-62,83
232,015	-139,29
232,225	324,57
232,436	241,29
232,647	-272,07
232,857	-258,07
233,068	247,09
233,279	219,79
233,489	-128,71
233,7	-120,18
233,91	198,97
234,121	222,18
234,332	-129,39
234,542	-124,95
234,753	273,72
234,964	255,97
235,174	-108,57
235,385	-230,08
235,595	225,25
235,806	195,21
236,016	-6,51
236,227	-111,64
236,437	301,71
236,648	367,58
236,858	-116,76
237,069	7,82
237,279	263,14
237,49	249,82
237,7	-105,84
237,911	-167,96
238,121	251,87
238,332	219,79
238,542	-262,17
238,753	-32,11
238,963	322,87
239,174	240,95
239,384	-107,21
239,595	-57,03
239,805	260,4
240,015	184,29
240,226	-130,42
240,436	-136,56
240,647	355,64
240,857	229
241,067	-189,81
241,278	-652,99
241,488	343,01
241,698	188,38
241,909	-55,66
242,119	-210,63
242,329	222,52
242,54	276,11
242,75	-72,73
242,96	50,15
243,171	184,97
243,381	309,21
243,591	-5,83
243,801	-261,49
244,012	106,47
244,222	243,34
244,432	128,65
244,642	98,27
244,853	298,63
245,063	202,72
245,273	-160,11
245,483	-193,22
245,694	174,39
245,904	232,07
246,114	-187,42
246,324	51,85
246,534	192,82
246,744	294,88
246,955	151,18
247,165	-305,18
247,375	38,88
247,585	271,67
247,795	-143,04
248,005	-251,59
248,215	327,65
248,425	176,44
248,636	-518,16
248,846	-27,33
249,056	340,96
249,266	325,6
249,476	-117,79
249,686	-134,51
249,896	303,41
250,106	179,51
250,316	-77,85
250,526	-389,83
250,736	319,8
250,946	111,93
251,156	-409,96
251,366	-63,52
251,576	223,88
251,786	269,96
251,996	-14,36
252,206	31,03
252,416	273,72
252,626	258,02
252,836	40,93
253,046	-103,11
253,256	247,43
253,466	251,19
253,676	-59,42
253,885	-239,3
254,095	245,73
254,305	210,23
254,515	-61,13
254,725	-97,31
254,935	265,87
255,145	219,79
255,355	-183,32
255,564	-106,18
255,774	246,75
255,984	-5,83
256,194	-98,67
256,404	-53,62
256,614	251,19
256,823	234,81
257,033	-80,24
257,243	-202,44
257,453	396,59
257,662	245,05
257,872	-234,86
258,082	-99,7
258,292	217,06
258,501	285,32
258,711	-728,76
258,921	-333,85
259,131	268,94
259,34	192,48
259,55	-88,43
259,76	97,25
259,969	252,55
260,179	155,28
260,389	-98,33
260,598	-290,84
260,808	238,22
261,018	241,97
261,227	-277,53
261,437	81,55
261,647	355,98
261,856	271,67
262,066	-220,53
262,275	-456,38
262,485	279,52
262,694	177,12
262,904	-158,4
263,114	-268,65
263,323	250,85
263,533	276,79
263,742	-103,79
263,952	-135,19
264,161	286,35
264,371	260,4
264,58	-67,27
264,79	-54,3
264,999	1,68
265,209	312,63
265,418	-118,13
265,628	-107,89
265,837	326,28
266,047	253,58
266,256	-355,69
266,466	-4,47
266,675	259,72
266,884	287,37
267,094	-197,66
267,303	-313,03
267,513	181,22
267,722	78,82
267,931	-143,39
268,141	-73,07
268,35	283,62
268,559	225,59
268,769	12,6
268,978	113,98
269,187	252,55
269,397	210,23
269,606	132,07
269,815	-25,97
270,025	250,51
270,234	179,51
270,443	48,44
270,653	-57,37
270,862	377,14
271,071	255,28
271,28	-6,86
271,49	-179,57
271,699	177,46
271,908	167,56
272,117	-68,98
272,327	-107,55
272,536	304,44
272,745	241,63
272,954	-29,04
273,163	-215,41
273,372	-48,84
273,582	133,09
273,791	-148,85
274	2,02
274,209	38,54
274,418	121,83
274,627	-248,86
274,836	-32,8
275,046	-87,75
275,255	69,94
275,464	5,43
275,673	81,55
275,882	-3,44
276,091	137,87
276,3	-205,17
276,509	-52,59
276,718	90,08
276,927	39,57
277,136	-114,03
277,345	-58,05
277,554	-3,78
277,763	60,73
277,972	-145,78
278,181	-127
278,39	117,05
278,599	36,83
278,808	17,38
279,017	-155,67
279,226	69,26
279,435	-43,72
279,644	-51,91
279,853	-119,49
280,062	-191,17
280,271	80,52
280,48	-87,07
280,688	-28,36
280,897	130,7
281,106	67,21
281,315	12,94
281,524	-52,25
281,733	6,46
281,942	36,15
282,151	-84,68
282,359	-239,64
282,568	138,55
282,777	95,2
282,986	-113,35
283,195	-49,86
283,403	42,98
283,612	95,54
283,821	-34,16
284,03	-24,26
284,238	-90,48
284,447	88,38
284,656	-20,17
284,865	-44,4
285,073	114,32
285,282	47,76
285,491	-54,64
285,699	76,43
285,908	11,92
286,117	106,47
286,325	-91,85
286,534	-275,48
286,743	116,36
286,951	11,92
287,16	-210,63
287,369	-28,02
287,577	37,86
287,786	137,53
287,995	-46,79
288,203	51,51
288,412	-1,74
288,62	25,23
288,829	-8,56
289,037	77,11
289,246	81,55
289,455	170,29
289,663	-154,99
289,872	-257,39
290,08	-40,99
290,289	91,11
290,497	41,95
290,706	-148,85
290,914	156,3
291,123	142,99
291,331	-14,71
291,54	-181,27
291,748	8,16
291,957	2,02
292,165	-108,23
292,373	104,08
292,582	29,67
292,79	0,31
292,999	-94,58
293,207	-124,27
293,415	76,77
293,624	98,27
293,832	-123,59
294,041	-61,47
294,249	72,67
294,457	176,78
294,666	-168,99
294,874	56,63
295,082	25,23
295,291	48,1
295,499	-14,02
295,707	-72,39
295,915	-32,8
296,124	59,02
296,332	-50,89
296,54	-64,2
296,749	-62,49
296,957	77,11
297,165	-29,38
297,373	-22,9
297,581	69,94
297,79	86,33
297,998	70,63
298,206	49,81
298,414	19,43
298,622	118,41
298,831	-198,68
299,039	-28,7
299,247	-67,95
299,455	57,66
299,663	-203,46
299,871	-72,39
300,08	83,6
300,288	130,7
300,496	-80,58
300,704	-26,31
300,912	206,82
301,12	115,34
301,328	-101,4
301,536	-31,77
301,744	143,67
301,952	125,92
302,16	35,81
302,368	-10,95
302,576	-14,36
302,784	-74,44
302,992	192,14
303,2	37,18
303,408	64,14
303,616	98,27
303,824	-106,86
304,032	-222,92
304,24	-163,87
304,448	-7,54
304,656	-20,51
304,864	-238,62
305,072	7,82
305,28	-11,97
305,488	-39,62
305,696	-88,77
305,904	40,93
306,111	156,64
306,319	-31,09
306,527	-57,37
306,735	-90,82
306,943	0,65
307,151	-177,18
307,359	39,57
307,566	79,84
307,774	2,7
307,982	-150,55
308,19	23,52
308,398	89,06
308,605	78,14
308,813	41,95
309,021	-27,68
309,229	-71,02
309,436	138,89
309,644	-223,26
309,852	-153,97
310,06	3,04
310,267	80,52
310,475	-96,62
310,683	-20,17
310,89	20,45
311,098	14,99
311,306	-37,92
311,513	-260,12
311,721	111,24
311,929	2,02
312,136	-36,89
312,344	-16,07
312,552	-72,05
312,759	121,14
312,967	-163,87
313,174	-160,79
313,382	14,65
313,589	-10,61
313,797	-123,93
314,005	-212,68
314,212	75,06
314,42	110,56
314,627	-49,52
314,835	35,81
315,042	49,12
315,25	136,5
315,457	-39,62
315,665	222,52
315,872	-25,29
316,08	212,96
316,287	0,31
316,495	-177,18
316,702	43,66
316,909	195,55
317,117	-164,55
317,324	-127,34
317,532	-161,14
317,739	133,43
317,946	1
318,154	-13,68
318,361	87,69
318,569	-151,92
318,776	56,29
318,983	128,65
319,191	78,14
319,398	14,99
319,605	-76,49
319,813	-193,22
320,02	158,01
320,227	-6,17
320,434	-152,94
320,642	-53,62
320,849	142,99
321,056	10,21
321,264	-46,11
321,471	-97,31
321,678	-9,93
321,885	183,26
322,092	-171,72
322,3	5,09
322,507	187,02
322,714	-4,81
322,921	-2,08
323,128	24,55
323,336	105,44
323,543	81,89
323,75	-133,15
323,957	-158,06
324,164	9,53
324,371	110,22
324,578	147,43
324,786	-91,5
324,993	115,68
325,2	-43,04
325,407	215,69
325,614	61,75
325,821	-25,63
326,028	27,28
326,235	-97,65
326,442	-63,17
326,649	85,3
326,856	34,45
327,063	93,15
327,27	-83,31
327,477	78,14
327,684	202,38
327,891	-10,95
328,098	-82,97
328,305	69,26
328,512	172,68
328,719	-172,4
328,926	-155,33
329,133	213,3
329,34	-97,99
329,546	-7,88
329,753	5,77
329,96	198,62
330,167	1,68
330,374	-115,06
330,581	-180,59
330,788	194,87
330,995	17,04
331,201	-26,65
331,408	-41,67
331,615	129,33
331,822	36,15
332,029	-26,99
332,235	-45,08
332,442	57,31
332,649	101,69
332,856	52,54
333,062	-24,6
333,269	112,27
333,476	154,59
333,683	-38,94
333,889	-149,19
334,096	-3,44
334,303	60,39
334,509	-57,03
334,716	-64,54
334,923	64,48
335,129	13,62
335,336	-46,79
335,543	-150,55
335,749	70,29
335,956	20,11
336,163	122,17
336,369	-120,52
336,576	127,63
336,782	3,73
336,989	55,27
337,196	-91,85
337,402	92,81
337,609	227,64
337,815	-13,68
338,022	-148,51
338,228	-61,13
338,435	37,18
338,641	-182,3
338,848	-196,63
339,054	17,72
339,261	166,2
339,467	108,86
339,674	-47,47
339,88	-1,05
340,087	148,45
340,293	18,4
340,5	-7,88
340,706	-115,06
340,912	147,77
341,119	55,27
341,325	-66,93
341,532	34,1
341,738	168,25
341,944	-103,11
342,151	-68,64
342,357	46,73
342,563	-27,68
342,77	-66,25
342,976	102,37
343,182	73,7
343,389	90,76
343,595	-35,19
343,801	87,01
344,007	-9,59
344,214	235,49
344,42	-77,85
344,626	50,15
344,832	97,25
345,039	173,71
345,245	-89,8
345,451	39,57
345,657	-55,66
345,864	118,41
346,07	-95,26
346,276	-32,11
346,482	13,97
346,688	-87,07
346,894	-13,68
347,1	-39,62
347,307	111,24
347,513	-34,84
347,719	-75,46
347,925	-48,16
348,131	181,9
348,337	56,97
348,543	3,04
348,749	12,94
348,955	33,42
349,161	80,52
349,367	-144,41
349,573	-183,66
349,779	1,68
349,985	80,87
350,191	-33,14
350,397	-127,69
350,603	-28,36
350,809	114,66
351,015	-113,69
351,221	-5,83
351,427	-73,76
351,633	-108,23
351,839	-210,63
352,045	-87,75
352,251	62,43
352,457	73,36
352,663	-115,4
352,869	-72,05
353,075	-23,58
353,28	98,62
353,486	-31,09
353,692	-69,32
353,898	121,48
354,104	25,23
354,31	-187,08
354,515	76,09
354,721	38,88
354,927	82,91
355,133	-166,94
355,339	-17,09
355,544	144,69
355,75	-77,17
355,956	-54,98
356,162	-123,93
356,367	274,06
356,573	-145,78
356,779	-2,08
356,984	-90,48
357,19	-82,63
357,396	37,52
357,602	-330,09
357,807	-87,07
358,013	54,58
358,218	92,47
358,424	37,18
358,63	44
358,835	54,93
359,041	138,21
359,247	-66,59
359,452	67,9
359,658	180,88
359,863	31,03
360,069	-88,77
360,274	-68,64
360,48	95,54
360,685	152,55
360,891	-172,06
361,097	3,04
361,302	108,86
361,508	-4,81
361,713	-25,63
361,918	-323,61
362,124	55,27
362,329	-33,48
362,535	-57,71
362,74	-38,26
362,946	87,35
363,151	92,81
363,357	-14,02
363,562	99,64
363,767	173,02
363,973	-2,08
364,178	39,57
364,383	-43,72
364,589	24,89
364,794	114,32
365	-97,65
365,205	-31,09
365,41	49,46
365,615	40,25
365,821	110,56
366,026	-202,78
366,231	20,45
366,437	-66,59
366,642	113,98
366,847	-120,52
367,052	102,71
367,258	70,29
367,463	29,67
367,668	26,25
367,873	-77,17
368,078	-5,83
368,284	250,85
368,489	10,55
368,694	42,98
368,899	119,44
369,104	-234,18
369,309	-141,34
369,515	4,75
369,72	25,57
369,925	102,71
370,13	-122,91
370,335	28,64
370,54	110,22
370,745	-156,36
370,95	-106,52
371,155	40,25
371,36	-16,07
371,565	-121,2
371,77	-125,64
371,975	174,73
372,18	93,15
372,385	-196,97
372,59	-117,1
372,795	86,67
373	29,67
373,205	-229,74
373,41	-9,24
373,615	95,88
373,82	181,9
374,025	-95,6
374,23	114,66
374,435	153,57
374,64	44,34
374,845	-163,18
375,05	-1,39
375,254	117,05
375,459	90,76
375,664	49,46
375,869	-46,11
376,074	56,29
376,279	76,43
376,483	-141
376,688	-8,22
376,893	91,11
377,098	165,17
377,303	-170,69
377,507	-117,1
377,712	146,74
377,917	-25,63
378,122	-110,96
378,326	-15,73
378,531	67,9
378,736	162,1
378,94	59,02
379,145	-51,23
379,35	20,45
379,554	81,89
379,759	48,1
379,964	-101,4
380,168	170,64
380,373	63,8
380,578	-207,56
380,782	-516,46
380,987	-76,14
381,191	186
381,396	-144,41
381,601	-33,48
381,805	30,69
382,01	-24,6
382,214	-127,69
382,419	-88,09
382,623	88,72
382,828	52,19
383,032	52,54
383,237	115,34
383,441	98,62
383,646	-59,76
383,85	81,21
384,055	-216,77
384,259	154,93
384,464	169,95
384,668	9,87
384,872	-67,27
385,077	36,49
385,281	53,22
385,486	69,94
385,69	-107,89
385,894	23,86
386,099	-52,93
386,303	-120,18
386,507	-185,37
386,712	-106,52
386,916	123,53
387,12	54,93
387,325	-153,28
387,529	-18,8
387,733	-29,72
387,937	-61,47
388,142	56,29
388,346	147,08
388,55	49,46
388,754	-41,33
388,959	67,21
389,163	-43,04
389,367	130,36
389,571	18,74
389,775	-156,36
389,98	48,44
390,184	-6,17
390,388	-19,83
390,592	-162,16
390,796	31,72
391	62,09
391,204	-47,47
391,409	24,21
391,613	93,5
391,817	150,5
392,021	-126,66
392,225	0,65
392,429	36,49
392,633	-7,54
392,837	-59,76
393,041	-10,61
393,245	-59,76
393,449	152,89
393,653	-23,92
393,857	-103,11
394,061	-123,25
394,265	99,64
394,469	-82,29
394,673	-214,38
394,877	-21,87
395,081	80,18
395,285	-230,42
395,489	-58,74
395,693	65,51
395,896	78,48
396,1	-160,11
396,304	-33,48
396,508	165,52
396,712	62,09
396,916	32,74
397,12	-91,85
397,323	110,56
397,527	-31,09
397,731	-275,82
397,935	-88,43
398,139	63,8
398,342	-20,17
398,546	-33,14
398,75	29,67
398,954	5,43
399,157	-111,98
399,361	-192,54
399,565	25,23
399,769	-10,27
399,972	51,85
400,176	-28,7
400,38	-71,02
400,583	142,99
400,787	-31,77
400,991	-138,95
401,194	-185,71
401,398	36,49
401,601	31,37
401,805	-152,26
402,009	-26,99
402,212	25,91
402,416	-58,05
402,619	63,46
402,823	-249,88
403,026	163,47
403,23	100,66
403,433	-234,18
403,637	-70,68
403,841	66,87
404,044	11,92
404,247	40,59
404,451	-150,55
404,654	73,36
404,858	113,63
405,061	-39,28
405,265	-48,5
405,468	-7,2
405,672	106,47
405,875	-200,73
406,078	23,18
406,282	65,17
406,485	133,43
406,689	-184,35
406,892	-279,58
407,095	96,91
407,299	134,8
407,502	-149,87
407,705	48,78
407,909	67,55
408,112	78,14
408,315	-166,6
408,518	-258,07
408,722	49,46
408,925	67,55
409,128	-231,45
409,331	-138,27
409,535	40,25
409,738	135,48
409,941	-348,18
410,144	-50,55
410,347	69,26
410,551	6,8
410,754	-7,88
410,957	-69,66
411,16	137,87
411,363	49,46
411,566	-109,94
411,769	-38,6
411,973	70,29
412,176	46,73
412,379	-350,23
412,582	-176,15
412,785	-87,07
412,988	97,93
413,191	-108,91
413,394	-73,76
413,597	162,44
413,8	4,75
414,003	-236,57
414,206	2,7
414,409	3,04
414,612	17,04
414,815	-124,27
415,018	-87,75
415,221	51,51
415,424	-177,52
415,627	-174,79
415,83	-61,81
416,033	-24,6
416,235	170,98
416,438	-188,1
416,641	-311,32
416,844	89,4
417,047	195,89
417,25	58,34
417,453	-17,44
417,655	20,79
417,858	-11,63
418,061	-105,5
418,264	-43,04
418,467	103,39
418,669	70,97
418,872	-231,11
419,075	49,81
419,278	100,66
419,48	-87,75
419,683	-31,43
419,886	143,33
420,089	132,75
420,291	33,08
420,494	70,97
420,697	-44,06
420,899	-3,44
421,102	176,44
421,305	-167,96
421,507	-142,02
421,71	97,93
421,912	135,48
422,115	37,18
422,318	-152,6
422,52	43,32
422,723	108,86
422,925	-194,59
423,128	-305,18
423,33	59,02
423,533	174,39
423,735	-112,33
423,938	3,38
424,14	108,17
424,343	82,57
424,545	-282,31
424,748	-219,5
424,95	-63,17
425,153	65,85
425,355	-85,02
425,558	-262,85
425,76	39,57
425,962	-26,99
426,165	-77,51
426,367	-30,07
426,57	158,69
426,772	107,15
426,974	-143,73
427,177	-21,19
427,379	74,04
427,581	79,16
427,784	20,11
427,986	-47,13
428,188	168,25
428,39	172,68
428,593	-87,07
428,795	-110,28
428,997	39,22
429,2	68,24
429,402	-157,04
429,604	80,18
429,806	70,63
430,008	-157,72
430,211	-150,21
430,413	37,18
430,615	32,74
430,817	106,12
431,019	-18,12
431,221	-122,91
431,423	68,58
431,626	26,6
431,828	9,53
432,03	105,44
432,232	140,6
432,434	76,43
432,636	-4,81
432,838	71,31
433,04	-114,37
433,242	27,96
433,444	-64,88
433,646	-287,77
433,848	108,51
434,05	94,86
434,252	121,83
434,454	-45,08
434,656	217,4
434,858	119,44
435,06	102,71
435,262	-93,55
435,464	179,85
435,666	98,96
435,868	-202,09
436,07	-91,5
436,271	211,59
436,473	171,66
436,675	-205,51
436,877	-142,7
437,079	88,03
437,281	115,34
437,482	-66,59
437,684	31,37
437,886	17,72
438,088	81,89
438,29	-160,45
438,491	-73,07
438,693	182,24
438,895	136,16
439,097	-265,58
439,298	-45,77
439,5	15,33
439,702	165,17
439,903	-90,82
440,105	-48,16
440,307	-1,05
440,508	-35,53
440,71	-87,07
440,912	-266,61
441,113	157,32
441,315	52,19
441,517	-28,36
441,718	-153,63
441,92	35,81
442,121	-33,82
442,323	-62,49
442,524	109,54
442,726	-104,13
442,928	95,2
443,129	-14,71
443,331	-90,82
443,532	59,36
443,734	32,74
443,935	-177,18
444,136	-1,05
444,338	66,19
444,539	30,69
444,741	-136,9
444,942	-171,72
445,144	-8,22
445,345	-152,26
445,546	37,86
445,748	-82,63
445,949	64,48
446,151	189,41
446,352	73,36
446,553	-399,38
446,755	122,17
446,956	104,76
447,157	-90,48
447,359	-161,82
447,56	13,62
447,761	247,09
447,962	-210,97
448,164	-131,44
448,365	49,81
448,566	167,22
448,767	26,25
448,969	-265,92
449,17	22,5
449,371	72,33
449,572	-196,63
449,773	-34,16
449,974	74,04
450,176	10,89
450,377	-64,54
450,578	-222,23
450,779	64,48
450,98	212,62
451,181	-66,59
451,382	-119,83
451,583	-23,24
451,784	110,9
451,986	60,39
452,187	-231,11
452,388	67,55
452,589	-47,47
452,79	-151,92
452,991	-20,85
453,192	-79,56
453,393	-16,41
453,594	-164,89
453,795	67,21
453,995	98,62
454,196	55,27
454,397	-35,19
454,598	69,6
454,799	119,78
455	-5,15
455,201	84,96
455,402	-295,28
455,603	127,63
455,804	66,87
456,004	4,41
456,205	-46,79
456,406	47,76
456,607	83,94
456,808	-328,73
457,008	17,04
457,209	104,08
457,41	66,87
457,611	-130,07
457,811	-472,43
458,012	22,16
458,213	125,92
458,414	-93,55
458,614	-107,55
458,815	32,06
459,016	23,18
459,216	-131,1
459,417	-83,31
459,618	-45,08
459,818	48,1
460,019	53,22
460,22	25,57
460,42	-37,92
460,621	4,41
460,821	-30,75
461,022	-267,63
461,223	90,76
461,423	176,1
461,624	-136,22
461,824	22,84
462,025	155,62
462,225	177,12
462,426	-233,16
462,626	71,99
462,827	-39,62
463,027	-113,01
463,228	-153,63
463,428	-223,94
463,628	131,04
463,829	-110,28
464,029	69,6
464,23	99,64
464,43	-22,21
464,63	97,59
464,831	106,47
465,031	-55,66
465,231	131,04
465,432	48,78
465,632	-523,97
465,832	172,68
466,033	149,81
466,233	95,2
466,433	-284,35
466,634	-76,49
466,834	-29,38
467,034	195,55
467,234	-129,73
467,435	-64,2
467,635	95,54
467,835	50,83
468,035	-66,25
468,235	45,03
468,436	-72,05
468,636	112,27
468,836	181,56
469,036	-206,19
469,236	33,76
469,436	144,01
469,636	-313,71
469,836	64,14
470,037	71,99
470,237	145,38
470,437	-244,08
470,637	-175,47
470,837	-89,46
471,037	-9,93
471,237	-48,84
471,437	-99,35
471,637	99,98
471,837	80,18
472,037	73,02
472,237	-147,14
472,437	59,02
472,637	9,53
472,837	-178,54
473,036	-52,59
473,236	155,28
473,436	61,41
473,636	-60,1
473,836	116,71
474,036	85,3
474,236	109,2
474,436	98,96
474,635	-225,65
474,835	76,09
475,035	84,62
475,235	-26,31
475,435	-71,37
475,634	48,44
475,834	-23,24
476,034	-220,19
476,234	114,32
476,433	84,96
476,633	-100,72
476,833	-97,99
477,033	28,3
477,232	-22,21
477,432	90,42
477,632	-295,28
477,831	-132,81
478,031	61,07
478,231	65,17
478,43	-51,91
478,63	-29,38
478,829	326,28
479,029	-5,83
479,229	9,53
479,428	179,17
479,628	70,97
479,827	15,67
480,027	104,08
480,226	-418,16
480,426	56,29
480,625	204,43
480,825	-11,63
481,024	-14,02
481,224	-138,61
481,423	173,37
481,623	-277,87
481,822	108,17
482,021	66,53
482,221	60,73
482,42	-207,56
482,62	10,89
482,819	8,85
483,018	113,98
483,218	109,88
483,417	-75,46
483,616	147,08
483,816	41,27
484,015	-143,73
484,214	49,46
484,414	19,09
484,613	155,62
484,812	-25,63
485,011	202,38
485,211	-59,42
485,41	-21,87
485,609	97,25
485,808	-115,06
486,008	126,26
486,207	131,38
486,406	23,86
486,605	3,04
486,804	76,43
487,003	175,07
487,203	31,72
487,402	215,35
487,601	162,44
487,8	207,16
487,999	41,95
488,198	-65,9
488,397	43,66
488,596	266,55
488,795	97,59
488,994	-28,02
489,193	146,4
489,392	87,69
489,591	59,36
489,79	31,03
489,989	85,3
490,188	197,26
490,387	-146,8
490,586	-76,14
490,785	133,09
490,984	41,27
491,183	-38,26
491,382	-88,09
491,581	225,59
491,779	165,86
491,978	43,32
492,177	-134,85
492,376	118,75
492,575	175,41
492,774	-3,78
492,972	197,94
493,171	109,54
493,37	181,22
493,569	-169,33
493,768	-195,95
493,966	82,91
494,165	162,1
494,364	-239,3
494,563	-228,04
494,761	111,93
494,96	94,52
495,159	-137,58
495,357	112,27
495,556	13,97
495,755	-55,32
495,953	-49,86
496,152	-17,78
496,35	120,12
496,549	165,17
496,748	-135,88
496,946	-139,97
497,145	55,61
497,343	210,91
497,542	111,93
497,74	-205,17
497,939	62,43
498,137	217,74
498,336	-132,46
498,534	-107,21
498,733	71,65
498,931	148,11
499,13	156,64
499,328	20,45
499,527	33,76
499,725	125,92
499,924	18,74
500,122	170,98
500,32	86,33
500,519	83,94
500,717	-90,48
500,915	43,66
501,114	-3,44
501,312	96,23
501,51	112,95
501,709	-40,65
501,907	-23,58
502,105	216,37
502,304	-93,55
502,502	-121,88
502,7	-0,37
502,898	165,52
503,097	-90,82
503,295	-57,37
503,493	165,17
503,691	-28,02
503,889	130,36
504,088	96,23
504,286	101
504,484	96,23
504,682	-56,35
504,88	-88,09
505,078	-22,21
505,276	74,04
505,474	-302,79
505,672	32,06
505,871	50,15
506,069	182,58
506,267	-56,35
506,465	-179,23
506,663	192,14
506,861	73,7
507,059	-160,79
507,257	-166,94
507,455	105,1
507,653	52,19
507,851	-66,25
508,049	103,05
508,246	-91,16
508,444	68,24
508,642	-53,96
508,84	-179,91
509,038	65,85
509,236	106,12
509,434	-1,39
509,632	-208,24
509,829	79,5
510,027	109,88
510,225	-189,81
510,423	60,73
510,621	84,62
510,818	85,99
511,016	-94,58
511,214	-145,09
511,412	-6,51
511,609	155,96
511,807	-120,18
512,005	-13,34
512,203	-12,66
512,4	39,22
512,598	-92,87
512,796	22,84
512,993	29,67
513,191	130,02
513,389	-68,29
513,586	-57,71
513,784	151,18
513,981	122,85
514,179	-239,64
514,377	-7,2
514,574	-44,06
514,772	216,37
514,969	-212,33
515,167	45,03
515,364	-45,77
515,562	196,58
515,759	-373,44
515,957	-8,9
516,154	209,21
516,352	-77,51
516,549	-181,96
516,746	-23,92
516,944	40,25
517,141	98,27
517,339	39,57
517,536	-92,19
517,733	130,36
517,931	138,21
518,128	-36,21
518,325	25,23
518,523	110,9
518,72	29,67
518,917	-111,3
519,115	-155,67
519,312	-1,39
519,509	-5,49
519,707	54,58
519,904	21,13
520,101	18,74
520,298	-40,65
520,495	-193,9
520,693	197,94
520,89	175,76
521,087	109,88
521,284	-303,47
521,481	93,5
521,678	35,13
521,876	77,11
522,073	-163,87
522,27	-45,43
522,467	55,27
522,664	219,79
522,861	-138,61
523,058	-194,93
523,255	133,43
523,452	120,46
523,649	28,3
523,846	25,57
524,043	109,88
524,24	175,76
524,437	-138,95
524,634	-26,31
524,831	107,83
525,028	77,11
525,225	62,43
525,422	-168,99
525,619	102,03
525,816	45,03
526,013	-409,28
526,209	-135,88
526,406	80,52
526,603	21,82
526,8	108,86
526,997	-121,2
527,194	69,26
527,39	80,52
527,587	75,06
527,784	-92,19
527,981	64,82
528,177	110,9
528,374	-69,32
528,571	-285,72
528,768	190,09
528,964	207,5
529,161	32,4
529,358	-207,21
529,554	186
529,751	163,47
529,948	194,53
530,144	-19,14
530,341	178,14
530,537	156,98
530,734	-76,83
530,931	-150,9
531,127	33,08
531,324	117,39
531,52	-72,73
531,717	66,87
531,913	-1,39
532,11	157,67
532,306	-66,25
532,503	139,23
532,699	149,47
532,896	123,53
533,092	-124,61
533,289	153,57
533,485	138,55
533,682	50,15
533,878	-166,6
534,074	10,55
534,271	45,03
534,467	128,31
534,664	-62,83
534,86	8,5
535,056	95,88
535,253	223,2
535,449	-142,36
535,645	-20,85
535,841	53,22
536,038	105,78
536,234	84,96
536,43	-202,78
536,626	185,65
536,823	160,05
537,019	52,88
537,215	-2,76
537,411	242,31
537,607	169,95
537,804	111,93
538	59,02
538,196	167,22
538,392	151,86
538,588	-105,84
538,784	55,95
538,98	215,35
539,176	297,95
539,373	29,33
539,569	15,67
539,765	292,15
539,961	198,62
540,157	44,69
540,353	187,02
540,549	390,45
540,745	393,18
540,941	279,86
541,137	327,31
541,333	392,16
541,528	436,53
541,724	355,98
541,92	372,36
542,116	590,81
542,312	402,74
542,508	452,91
542,704	339,93
542,9	532,44
543,096	567,26
543,291	285,66
543,487	356,32
543,683	601,73
543,879	712,32
544,075	370,31
544,27	455,3
544,466	536,54
544,662	485,34
544,858	412,3
545,053	299,66
545,249	546,1
545,445	766,25
545,64	521,18
545,836	511,62
546,032	586,71
546,227	607,54
546,423	103,05
546,619	199,99
546,814	474,76
547,01	392,5
547,205	258,7
547,401	193,85
547,597	305,8
547,792	397,28
547,988	-143,73
548,183	135,48
548,379	155,62
548,574	161,08
548,77	90,08
548,965	38,2
549,161	294,2
549,356	252,55
549,552	-46,79
549,747	-96,28
549,942	140,26
550,138	188,04
550,333	96,23
550,529	81,21
550,724	286
550,919	248,46
551,115	-0,37
551,31	-222,57
551,505	165,86
551,701	214,33
551,896	-89,8
552,091	-98,67
552,287	217,06
552,482	178,83
552,677	-2,42
552,872	134,11
553,067	145,72
553,263	54,58
553,458	83,94
553,653	-201,75
553,848	54,58
554,043	36,15
554,239	-47,13
554,434	-82,29
554,629	265,52
554,824	177,12
555,019	28,64
555,214	-30,41
555,409	18,4
555,604	26,25
555,799	-100,38
555,994	-64,54
556,189	77,79
556,384	185,31
556,579	-144,07
556,774	-191,85
556,969	164,83
557,164	140,26
557,359	-174,79
557,554	-105,16
557,749	195,21
557,944	141,96
558,139	-154,31
558,334	-5,49
558,529	104,08
558,724	156,3
558,918	-150,9
559,113	-7,54
559,308	171,32
559,503	136,84
559,698	93,15
559,893	8,16
560,087	57,66
560,282	341,98
560,477	-291,52
560,672	-9,24
560,866	110,22
561,061	224,57
561,256	-129,39
561,45	-75,8
561,645	22,5
561,84	176,78
562,034	-112,33
562,229	-39,96
562,424	224,57
562,618	82,57
562,813	-40,65
563,008	170,29
563,202	55,95
563,397	206,48
563,591	-111,3
563,786	-76,14
563,98	226,27
564,175	163,81
564,369	-145,43
564,564	-295,28
564,758	154,25
564,953	108,17
565,147	-58,4
565,342	56,63
565,536	242,31
565,731	226,95
565,925	-145,78
566,119	58,68
566,314	219,45
566,508	470,66
566,703	8,5
566,897	292,15
567,091	340,62
567,286	286,35
567,48	18,4
567,674	29,67
567,868	509,57
568,063	462,47
568,257	113,98
568,451	209,21
568,646	345,74
568,84	291,81
569,034	218,08
569,228	72,67
569,422	256,99
569,616	305,8
569,811	241,29
570,005	-125,3
570,199	246,41
570,393	203,06
570,587	-104,82
570,781	110,22
570,975	409,57
571,169	248,12
571,364	-281,62
571,558	-182,3
571,752	104,08
571,946	254,94
572,14	-110,62
572,334	-138,27
572,528	197,6
572,722	206,82
572,916	-17,44
573,109	-148,85
573,303	316,72
573,497	289,08
573,691	-168,3
573,885	-5,15
574,079	251,87
574,273	289,42
574,467	2,7
574,661	108,86
574,854	235,83
575,048	263,48
575,242	36,49
575,436	18,06
575,63	363,83
575,823	131,38
576,017	55,61
576,211	208,86
576,405	291,47
576,598	347,78
576,792	70,97
576,986	-16,07
577,18	312,97
577,373	282,93
577,567	65,17
577,761	84,96
577,954	256,65
578,148	190,43
578,341	141,28
578,535	-26,31
578,729	322,87
578,922	283,62
579,116	108,17
579,309	118,75
579,503	205,11
579,696	299,32
579,89	-185,37
580,083	13,28
580,277	281,23
580,47	353,93
580,664	-69,32
580,857	217,06
581,051	305,8
581,244	293,51
581,437	86,33
581,631	-47,81
581,824	294,2
582,018	238,22
582,211	327,31
582,404	297,95
582,598	447,45
582,791	294,2
582,984	145,38
583,178	-55,32
583,371	349,49
583,564	419,81
583,757	79,16
583,951	-6,86
584,144	389,09
584,337	306,83
584,53	97,59
584,723	329,01
584,917	457,01
585,11	432,78
585,303	77,45
585,496	-7,54
585,689	390,79
585,882	571,01
586,075	460,08
586,268	1018,15
586,462	1907,31
586,655	3541,59
586,848	6559,62
587,041	12122,92
587,234	20903,59
587,427	29827,95
587,62	38565,27
587,813	46894,7
588,006	53790,89
588,199	55770,26
588,392	54711,8
588,585	51249,02
588,777	46864,66
588,97	40612,56
589,163	33954,27
589,356	28656,86
589,549	25307,75
589,742	22420,45
589,935	19967,67
590,128	18104,02
590,32	16623,68
590,513	14856,62
590,706	13395,74
590,899	11864,88
591,092	10231,28
591,284	8634,21
591,477	6743,25
591,67	5259,84
591,863	4152,57
592,055	3187,29
592,248	1903,22
592,441	1410,34
592,633	1316,82
592,826	1004,5
593,019	638,6
593,211	289,76
593,404	588,08
593,596	536,2
593,789	256,99
593,982	189,41
594,174	457,69
594,367	422,54
594,559	88,72
594,752	398,64
594,944	329,69
595,137	300,68
595,329	87,01
595,522	1,68
595,714	310,92
595,907	166,88
596,099	75,75
596,292	108,86
596,484	319,45
596,676	297,27
596,869	-196,97
597,061	-266,26
597,253	261,43
597,446	280,2
597,638	84,62
597,83	59,02
598,023	390,11
598,215	431,07
598,407	59,36
598,6	228,66
598,792	188,04
598,984	208,86
599,176	48,44
599,369	-157,38
599,561	225,93
599,753	313,99
599,945	-190,15
600,137	113,63
600,329	188,04
600,522	298,29
600,714	147,08
600,906	161,76
601,098	166,54
601,29	308,87
601,482	2,7
601,674	-56,01
601,866	156,3
602,058	224,91
602,25	-135,19
602,442	-197,66
602,634	219,1
602,826	165,86
603,018	-53,28
603,21	-153,28
603,402	163,47
603,594	261,77
603,786	-99,35
603,978	-291,18
604,17	297,27
604,362	272,69
604,554	-223,6
604,745	-139,97
604,937	139,92
605,129	232,07
605,321	9,87
605,513	25,57
605,704	249,48
605,896	135,48
606,088	-49,18
606,28	20,79
606,471	8,5
606,663	197,26
606,855	199,99
607,047	-47,81
607,238	253,92
607,43	160,4
607,622	-252,95
607,813	-20,85
608,005	249,14
608,197	80,52
608,388	-44,06
608,58	122,17
608,771	183,26
608,963	336,18
609,154	157,67
609,346	193,5
609,537	414,69
609,729	489,09
609,921	23,86
610,112	203,74
610,303	493,53
610,495	595,59
610,686	223,88
610,878	549,85
611,069	664,88
611,261	540,64
611,452	468,62
611,643	341,64
611,835	480,9
612,026	490,12
612,217	159,03
612,409	306,83
612,6	495,92
612,791	469,64
612,983	95,54
613,174	-74,78
613,365	377,14
613,557	368,95
613,748	116,36
613,939	-10,95
614,13	323,21
614,321	401,37
614,513	-177,86
614,704	-90,82
614,895	308,19
615,086	359,39
615,277	52,88
615,468	94,18
615,659	210,57
615,851	350,17
616,042	-62,49
616,233	-95,6
616,424	155,62
616,615	138,21
616,806	87,35
616,997	184,97
617,188	267,57
617,379	184,29
617,57	-166,26
617,761	-108,57
617,952	108,17
618,143	137,19
618,334	-17,78
618,524	-43,72
618,715	167,22
618,906	323,21
619,097	-24,6
619,288	257,67
619,479	49,81
619,67	232,76
619,86	150,5
620,051	-17,44
620,242	121,14
620,433	197,26
620,624	-113,69
620,814	-60,44
621,005	152,89
621,196	80,18
621,386	-137,24
621,577	-29,72
621,768	302,39
621,958	181,56
622,149	40,93
622,34	-47,13
622,53	247,43
622,721	162,1
622,912	-225,99
623,102	-45,77
623,293	144,69
623,483	221,15
623,674	-160,11
623,864	-22,21
624,055	169,95
624,245	141,62
624,436	180,19
624,626	83,6
624,817	235,15
625,007	258,36
625,198	108,51
625,388	-5,49
625,579	182,92
625,769	244,7
625,959	-143,04
626,15	-157,72
626,34	151,52
626,531	44,34
626,721	-151,24
626,911	119,1
627,101	292,49
627,292	262,79
627,482	-47,81
627,672	-20,85
627,863	235,15
628,053	36,15
628,243	-102,43
628,433	212,28
628,623	260,06
628,814	319,11
629,004	-36,21
629,194	74,72
629,384	78,48
629,574	307,85
629,764	-240,32
629,955	-124,61
630,145	67,55
630,335	178,83
630,525	158,35
630,715	-123,25
630,905	153,23
631,095	189,75
631,285	-27,68
631,475	90,76
631,665	71,65
631,855	260,4
632,045	130,02
632,235	90,08
632,425	182,24
632,615	340,96
632,805	-113,35
632,994	3,38
633,184	18,74
633,374	262,79
633,564	-108,91
633,754	-81,26
633,944	196,92
634,133	147,08
634,323	-59,42
634,513	-95,94
634,703	241,29
634,893	178,49
635,082	-151,58
635,272	3,04
635,462	174,73
635,651	171,66
635,841	-150,21
636,031	-15,05
636,221	132,07
636,41	203,06
636,6	66,53
636,789	-141,68
636,979	199,65
637,169	125,24
637,358	137,19
637,548	-98,33
637,737	102,03
637,927	189,75
638,116	56,97
638,306	-4,81
638,495	109,2
638,685	265,52
638,874	57,66
639,064	-140,31
639,253	109,88
639,443	110,56
639,632	8,85
639,822	52,54
640,011	48,78
640,2	112,27
640,39	-196,97
640,579	-124,27
640,768	182,58
640,958	202,38
641,147	118,07
641,336	-12,32
641,526	48,78
641,715	94,18
641,904	-208,92
642,093	76,09
642,283	58,34
642,472	61,41
642,661	91,45
642,85	-208,58
643,039	259,72
643,228	151,86
643,418	-99,35
643,607	-91,5
643,796	-28,36
643,985	150,5
644,174	-93,21
644,363	-189,12
644,552	134,11
644,741	153,57
644,93	52,88
645,119	-186,05
645,308	165,52
645,497	75,41
645,686	-253,64
645,875	45,03
646,064	106,81
646,253	145,04
646,442	-229,74
646,631	39,22
646,82	59,36
647,009	83,26
647,198	-72,05
647,387	67,55
647,575	173,37
647,764	284,64
647,953	-108,23
648,142	-98,67
648,331	258,36
648,519	203,4
648,708	-197,66
648,897	7,82
649,086	133,09
649,274	198,62
649,463	55,27
649,652	-379,24
649,84	109,2
650,029	97,93
650,218	-90,82
650,406	-111,64
650,595	159,03
650,784	136,5
650,972	-119,15
651,161	-42,69
651,349	185,65
651,538	-35,53
651,726	-67,61
651,915	-153,63
652,104	107,83
652,292	233,78
652,481	-204,83
652,669	-357,06
652,857	227,3
653,046	113,98
653,234	-80,58
653,423	-304,83
653,611	111,59
653,8	172
653,988	-79,22
654,176	18,06
654,365	181,9
654,553	1,34
654,741	-187,76
654,93	-50,55
655,118	78,14
655,306	114,66
655,494	74,38
655,683	-32,11
655,871	192,82
656,059	95,54
656,247	95,2
656,436	-85,02
656,624	3,73
656,812	116,36
657	50,83
657,188	-280,6
657,376	216,71
657,564	-63,52
657,753	-13,34
657,941	80,18
658,129	44,69
658,317	105,1
658,505	36,83
658,693	23,86
658,881	282,25
659,069	-2,76
659,257	-5,83
659,445	-126,32
659,633	-10,95
659,821	178,49
660,009	-121,2
660,197	36,49
660,384	82,23
660,572	198,97
660,76	-213,02
660,948	-77,17
661,136	176,44
661,324	189,41
661,512	-188,78
661,699	12,6
661,887	97,25
662,075	0,65
662,263	-71,71
662,451	-8,56
662,638	145,38
662,826	195,55
663,014	-312,69
663,201	-116,08
663,389	169,95
663,577	118,41
663,764	-204,14
663,952	29,33
664,14	36,15
664,327	121,83
664,515	-170,69
664,702	-161,14
664,89	232,07
665,078	217,74
665,265	30,01
665,453	-70,68
665,64	219,45
665,828	96,57
666,015	-77,85
666,203	-10,95
666,39	146,06
666,578	93,5
666,765	-36,21
666,952	-488,81
667,14	-16,75
667,327	121,48
667,515	-99,01
667,702	-74,1
667,889	130,7
668,077	191,8
668,264	-314,05
668,451	-186,73
668,638	131,04
668,826	225,59
669,013	-122,91
669,2	-245,78
669,388	225,25
669,575	10,89
669,762	143,33
669,949	-215,41
670,136	-4046,81
670,323	123,19
670,511	-86,38
670,698	-43,72
670,885	92,81
671,072	133,09
671,259	-241,35
671,446	8,5
671,633	99,98
671,82	208,52
672,007	27,96
672,194	-129,73
672,381	175,76
672,568	210,57
672,755	-48,84
672,942	-125,64
673,129	191,8
673,316	177,8
673,503	-157,04
673,69	-54,98
673,877	124,9
674,064	93,15
674,251	-128,37
674,437	-132,81
674,624	-33,82
674,811	82,23
674,998	16,36
675,185	-70
675,372	-0,71
675,558	83,26
675,745	-83,31
675,932	-208,92
676,119	182,58
676,305	-4,47
676,492	-197,66
676,679	-97,99
676,865	89,4
677,052	85,64
677,239	65,51
677,425	-48,84
677,612	223,88
677,798	96,91
677,985	-165,57
678,172	-195,95
678,358	98,27
678,545	87,01
678,731	-77,17
678,918	13,97
679,104	144,35
679,291	161,42
679,477	114,66
679,664	-91,5
679,85	221,15
680,036	132,07
680,223	-19,83
680,409	28,98
680,596	158,01
680,782	26,6
680,968	-218,48
681,155	-45,43
681,341	116,36
681,527	142,65
681,714	-22,56
681,9	55,61
682,086	214,67
682,272	97,59
682,459	38,2
682,645	-312
682,831	137,19
683,017	139,92
683,204	-327,02
683,39	-31,43
683,576	151,52
683,762	233,78
683,948	-90,48
684,134	133,09
684,32	107,49
684,506	67,55
684,693	-266,61
684,879	145,72
685,065	146,06
685,251	186,34
685,437	-16,07
685,623	-138,27
685,809	79,84
685,995	202,72
686,181	-122,22
686,366	-70,68
686,552	64,14
686,738	215,69
686,924	-174,11
687,11	-8,56
687,296	104,76
687,482	188,38
687,668	97,93
687,853	132,07
688,039	73,7
688,225	145,72
688,411	-30,41
688,597	-255
688,782	118,75
688,968	285,66
689,154	-159,09
689,34	-395,97
689,525	181,22
689,711	235,15
689,897	-485,74
690,082	-55,32
690,268	158,01
690,454	252,55
690,639	-91,16
690,825	-274,8
691,01	51,17
691,196	217,74
691,381	-192,2
691,567	-93,89
691,753	179,17
691,938	212,96
692,124	77,11
692,309	-0,71
692,494	84,28
692,68	126,26
692,865	-44,74
693,051	-172,4
693,236	166,88
693,422	135,82
693,607	58
693,792	-72,73
693,978	175,07
694,163	219,1
694,348	-22,21
694,534	-118,47
694,719	199,99
694,904	250,85
695,089	-32,11
695,275	44,69
695,46	396,59
695,645	189,75
695,83	141,28
696,016	119,44
696,201	232,76
696,386	182,92
696,571	-93,55
696,756	73,02
696,941	176,78
697,126	293,17
697,311	42,98
697,497	-148,51
697,682	109,2
697,867	125,58
698,052	-96,97
698,237	-320,19
698,422	92,13
698,607	178,83
698,792	-115,4
698,977	-143,39
699,162	16,7
699,347	215,69
699,531	-136,9
699,716	-154,31
699,901	84,28
700,086	147,77
700,271	-109,94
700,456	-327,36
700,641	182,58
700,825	129,33
701,01	-339,99
701,195	-129,39
701,38	56,97
701,565	272,35
701,749	-127,34
701,934	37,18
702,119	179,51
702,303	177,12
702,488	-203,46
702,673	-304,83
702,857	66,87
703,042	167,22
703,227	-179,91
703,411	-51,57
703,596	27,96
703,78	113,29
703,965	-18,8
704,15	-61,13
704,334	90,42
704,519	233,78
704,703	64,14
704,888	72,33
705,072	168,59
705,257	153,23
705,441	173,02
705,625	-414,74
705,81	167,22
705,994	312,97
706,179	-92,87
706,363	-10,27
706,547	267,57
706,732	180,19
706,916	-68,29
707,1	48,78
707,285	156,64
707,469	239,58
707,653	-86,04
707,837	11,58
708,022	233,1
708,206	190,09
708,39	98,96
708,574	-144,75
708,759	131,38
708,943	264,5
709,127	-208,24
709,311	-207,9
709,495	194,87
709,679	145,72
709,863	-140,66
710,047	-141
710,231	73,36
710,415	249,14
710,6	-271,38
710,784	71,99
710,968	-15,05
711,152	181,22
711,336	-24,6
711,519	-158,4
711,703	85,64
711,887	85,99
712,071	-72,73
712,255	-1,05
712,439	-55,66
712,623	148,11
712,807	-81,26
712,991	-136,56
713,174	153,57
713,358	74,72
713,542	-172,06
713,726	-94,24
713,91	144,35
714,093	220,13
714,277	-65,56
714,461	-234,86
714,645	112,27
714,828	189,41
715,012	-18,12
715,196	46,73
715,379	119,1
715,563	107,15
715,747	-170,69
715,93	-154,99
716,114	104,08
716,297	252,9
716,481	-24,26
716,664	-118,47
716,848	173,37
717,031	88,72
717,215	26,6
717,398	-128,71
717,582	120,8
717,765	-30,41
717,949	-34,5
718,132	-135,88
718,316	226,61
718,499	190,09
718,682	-308,25
718,866	24,55
719,049	145,38
719,233	129,33
719,416	-178,2
719,599	-293,57
719,782	195,21
719,966	189,07
720,149	7,14
720,332	-255
720,515	161,76
720,699	142,65
720,882	-138,61
721,065	-28,36
721,248	205,45
721,431	268,26
721,615	-13,34
721,798	-205,51
721,981	85,99
722,164	231,73
722,347	-148,51
722,53	-348,52
722,713	180,53
722,896	112,27
723,079	-144,07
723,262	-181,96
723,445	31,37
723,628	213,64
723,811	-51,91
723,994	-64,54
724,177	143,67
724,36	160,05
724,543	-99,35
724,726	36,15
724,909	171,32
725,091	47,76
725,274	54,93
725,457	68,92
725,64	211,25
725,823	145,72
726,006	-43,72
726,188	18,74
726,371	-24,95
726,554	180,88
726,737	-20,17
726,919	-97,65
727,102	124,21
727,285	206,13
727,467	-81,26
727,65	-124,61
727,833	229,34
728,015	189,07
728,198	-48,5
728,38	-90,82
728,563	168,93
728,746	174,05
728,928	-92,19
729,111	-23,92
729,293	123,53
729,476	78,82
729,658	-98,33
729,841	-42,35
730,023	36,83
730,205	185,31
730,388	-140,31
730,57	-153,97
730,753	138,21
730,935	247,09
731,117	-342,38
731,3	-36,55
731,482	224,91
731,664	139,57
731,847	-97,31
732,029	-156,36
732,211	107,83
732,394	261,09
732,576	-121,2
732,758	-301,42
732,94	65,51
733,122	129,33
733,305	-363,2
733,487	-52,93
733,669	97,59
733,851	185,31
734,033	-174,79
734,215	-183,66
734,397	70,29
734,58	64,14
734,762	-111,3
734,944	-165,91
735,126	118,41
735,308	142,31
735,49	53,22
735,672	-48,16
735,854	159,37
736,036	195,21
736,218	-321,56
736,399	-108,91
736,581	90,08
736,763	169,27
736,945	-232,81
737,127	77,45
737,309	265,18
737,491	175,41
737,672	66,87
737,854	-77,85
738,036	90,08
738,218	219,45
738,4	191,12
738,581	-112,33
738,763	178,49
738,945	245,05
739,127	-91,16
739,308	-153,63
739,49	59,36
739,672	202,38
739,853	-212,68
740,035	1,68
740,216	237,54
740,398	276,79
740,58	-53,62
740,761	-93,89
740,943	2,7
741,124	117,73
741,306	-88,77
741,487	-123,93
741,669	149,47
741,85	94,18
742,032	-144,07
742,213	-20,85
742,394	138,89
742,576	218,08
742,757	-294,59
742,939	-261,49
743,12	139,92
743,301	207,16
743,483	-4,47
743,664	-70,34
743,845	117,73
744,027	228,32
744,208	3,04
744,389	-118,47
744,57	200,67
744,752	61,07
744,933	-70
745,114	-37,92
745,295	175,41
745,476	14,65
745,657	-29,38
745,839	31,72
746,02	181,56
746,201	145,72
746,382	-190,15
746,563	-349,89
746,744	63,8
746,925	236,17
747,106	-97,31
747,287	-288,11
747,468	183,95
747,649	79,5
747,83	-125,64
748,011	-205,51
748,192	184,63
748,373	179,51
748,554	118,07
748,735	-28,02
748,915	399,33
749,096	270,3
749,277	-52,59
749,458	-95,6
749,639	333,45
749,82	322,53
750	246,07
750,181	-52,93
750,362	390,79
750,543	204,09
750,723	3,04
750,904	12,6
751,085	199,31
751,265	162,44
751,446	-29,38
751,627	-33,48
751,807	164,83
751,988	154,59
752,169	-151,58
752,349	-16,41
752,53	168,59
752,71	177,46
752,891	-359,79
753,071	-142,02
753,252	232,07
753,432	210,91
753,613	-91,16
753,793	-113,01
753,974	213,64
754,154	122,85
754,334	-144,75
754,515	158,01
754,695	36,49
754,876	94,52
755,056	-389,83
755,236	-102,43
755,417	84,28
755,597	183,61
755,777	-125,3
755,957	-162,16
756,138	116,71
756,318	174,05
756,498	-84,34
756,678	-116,76
756,859	-26,65
757,039	108,17
757,219	-148,16
757,399	-80,24
757,579	179,51
757,759	222,52
757,939	123,19
758,119	-398,36
758,3	166,88
758,48	113,29
758,66	-50,89
758,84	-10,27
759,02	22,84
759,2	247,09
759,38	-204,48
759,56	-243,05
759,74	62,43
759,919	154,25
760,099	-232,47
760,279	-216,43
760,459	-3,78
760,639	91,79
760,819	-176,15
760,999	177,8
761,178	274,4
761,358	411,61
761,538	400,01
761,718	461,11
761,898	683,31
762,077	732,46
762,257	486,02
762,437	506,84
762,616	722,9
762,796	596,95
762,976	240,27
763,155	230,37
763,335	515,04
763,515	338,91
763,694	-105,84
763,874	45,71
764,053	177,12
764,233	199,99
764,413	8,16
764,592	-113,01
764,772	97,93
764,951	290,78
765,131	56,97
765,31	-59,76
765,489	153,91
765,669	345,05
765,848	-109,59
766,028	126,26
766,207	196,24
766,386	148,79
766,566	66,19
766,745	-43,72
766,924	-22,9
767,104	183,61
767,283	42,64
767,462	-252,27
767,642	161,76
767,821	234,12
768	178,49
768,179	-19,48
768,358	107,83
768,538	294,2
768,717	-8,56
768,896	-43,72
769,075	124,21
769,254	254,6
769,433	-66,59
769,612	-176,84
769,791	262,11
769,97	224,22
770,149	-58,74
770,328	178,14
770,507	256,65
770,686	466,57
770,865	21,48
771,044	174,05
771,223	478,85
771,402	333,79
771,581	40,59
771,76	189,07
771,939	137,53
772,118	272,01
772,297	-113,69
772,475	13,97
772,654	145,72
772,833	288,74
773,012	-355,69
773,191	-247,15
773,369	92,81
773,548	136,5
773,727	188,73
773,906	-332,48
774,084	124,56
774,263	165,86
774,442	-28,36
774,62	6,8
774,799	150,16
774,977	16,36
775,156	-211,31
775,335	-159,77
775,513	153,23
775,692	227,3
775,87	-452,97
776,049	-48,16
776,227	188,73
776,406	230,03
776,584	-35,19
776,763	-267,29
776,941	227,64
777,119	117,73
777,298	66,53
777,476	-331,46
777,655	234,81
777,833	250,85
778,011	-293,91
778,19	-156,02
778,368	101,35
778,546	183,95
778,725	-340,67
778,903	-7,54
779,081	160,4
779,259	248,12
779,437	-75,12
779,616	-29,38
779,794	136,16
779,972	302,39
780,15	-65,9
780,328	-141,34
780,506	118,07
780,685	201,36
780,863	-14,71
781,041	98,62
781,219	159,03
781,397	97,25
781,575	-149,53
781,753	-60,1
781,931	126,6
782,109	226,95
782,287	-71,02
782,465	-103,79
782,643	94,18
782,82	96,91
782,998	-334,19
783,176	-192,2
783,354	258,36
783,532	261,09
783,71	-106,52
783,888	-149,53
784,065	91,45
784,243	121,14
784,421	-76,83
784,599	-159,09
784,776	102,37
784,954	186,68
785,132	-98,33
785,31	1,34
785,487	165,17
785,665	125,24
785,842	-151,58
786,02	-465,6
786,198	168,59
786,375	270,99
786,553	-100,38
786,73	-69,32
786,908	144,01
787,085	162,44
787,263	-7,54
787,44	-43,04
787,618	129,68
787,795	223,2
787,973	69,94
788,15	-75,8
788,328	107,49
788,505	30,35
788,682	-175,47
788,86	-15,39
789,037	145,38
789,215	159,71
789,392	-72,39
789,569	-217,45
789,746	118,07
789,924	186,68
790,101	-226,33
790,278	-228,72
790,455	204,77
790,633	114,32
790,81	-141,34
790,987	-84
791,164	147,77
791,341	149,13
791,518	60,73
791,695	-132,81
791,873	198,28
792,05	262,45
792,227	-78,88
792,404	-21,87
792,581	168,59
792,758	308,53
792,935	101,69
793,112	-91,85
793,289	266,55
793,466	174,39
793,643	74,38
793,82	213,3
793,996	179,17
794,173	172,34
794,35	38,54
794,527	-244,42
794,704	9,87
794,881	114,66
795,057	-130,42
795,234	90,42
795,411	204,09
795,588	111,93
795,765	155,62
795,941	-112,33
796,118	196,24
796,295	224,57
796,471	-206,53
796,648	-29,72
796,825	37,86
797,001	233,78
797,178	-289,82
797,354	-237,93
797,531	114,32
797,708	186
797,884	-199,36
798,061	48,78
798,237	275,42
798,414	319,45
798,59	-131,78
798,767	-63,86
798,943	238,9
799,119	252,55
799,296	42,3
799,472	14,99
799,649	356,66
799,825	191,46
800,001	132,07
800,178	186
800,354	289,08
800,53	295,9
800,707	174,39
800,883	81,55
801,059	306,14
801,235	-62,49
801,411	39,22
801,588	149,47
801,764	121,48
801,94	146,06
802,116	8,85
802,292	19,09
802,468	197,94
802,645	161,42
802,821	-253,98
802,997	-96,28
803,173	150,5
803,349	243
803,525	-37,23
803,701	-122,22
803,877	122,85
804,053	179,17
804,229	4,07
804,405	-206,19
804,581	260,4
804,756	307,85
804,932	1,68
805,108	0,65
805,284	208,18
805,46	187,02
805,636	-93,89
805,812	24,21
805,987	206,13
806,163	198,28
806,339	-2541,56
806,515	65,51
806,69	135,82
806,866	170,29
807,042	-216,43
807,217	-81,61
807,393	155,28
807,569	278,5
807,744	-303,47
807,92	-383,68
808,096	270,3
808,271	232,42
808,447	115,34
808,622	113,29
808,798	290,44
808,973	333,45
809,149	58,34
809,324	91,45
809,5	458,38
809,675	529,03
809,851	268,26
810,026	267,91
810,201	531,42
810,377	586,37
810,552	270,3
810,728	84,62
810,903	340,28
811,078	379,87
811,253	-77,85
811,429	272,69
811,604	390,45
811,779	324,23
811,955	-4,81
812,13	-38,6
812,305	197,94
812,48	158,35
812,655	-338,97
812,83	-234,86
813,006	176,1
813,181	160,4
813,356	69,6
813,531	145,04
813,706	174,73
813,881	234,46
814,056	3,38
814,231	-206,19
814,406	132,07
814,581	331,06
814,756	-85,36
814,931	-96,62
815,106	192,14
815,281	185,31
815,456	-239,64
815,631	-61,47
815,805	307,51
815,98	246,75
816,155	99,64
816,33	155,28
816,505	373,04
816,68	467,93
816,854	279,86
817,029	233,44
817,204	520,16
817,379	578,52
817,553	244,02
817,728	521,86
817,903	747,82
818,077	678,19
818,252	485,68
818,427	256,65
818,601	611,63
818,776	475,78
818,95	310,92
819,125	-32,45
819,299	410,93
819,474	258,02
819,648	82,23
819,823	-173,42
819,997	232,42
820,172	320,82
820,346	-73,76
820,521	-86,04
820,695	192,14
820,87	280,54
821,044	-61,81
821,218	-59,42
821,393	109,2
821,567	280,54
821,741	-71,02
821,916	-26,31
822,09	89,4
822,264	323,21
822,438	49,12
822,613	-64,54
822,787	107,49
822,961	254,26
823,135	-217,11
823,309	-4,47
823,483	220,13
823,658	218,42
823,832	-279,92
824,006	191,8
824,18	236,51
824,354	304,78
824,528	-33,14
824,702	-147,48
824,876	268,6
825,05	171,32
825,224	-63,17
825,398	-202,44
825,572	255,63
825,746	184,63
825,92	-327,36
826,093	-77,51
826,267	172,68
826,441	279,52
826,615	-227,01
826,789	-258,07
826,963	256,31
827,136	176,78
827,31	-92,87
827,484	102,37
827,658	251,19
827,831	161,08
828,005	-60,44
828,179	106,47
828,353	158,35
828,526	207,5
828,7	-44,4
828,873	116,02
829,047	95,54
829,221	217,4
829,394	-101,74
829,568	-103,45
829,741	212,28
829,915	286,35
830,088	-313,37
830,262	-362,52
830,435	190,77
830,609	89,06
830,782	-135,54
830,956	-153,97
831,129	121,83
831,302	288,39
831,476	-14,36
831,649	51,51
831,822	106,81
831,996	141,62
832,169	-313,37
832,342	166,54
832,516	306,83
832,689	329,01
832,862	-181,96
833,035	-325,66
833,209	-20,85
833,382	138,21
833,555	141,96
833,728	32,74
833,901	178,83
834,074	225,59
834,247	-19,14
834,42	-161,14
834,594	148,45
834,767	113,29
834,94	-270,7
835,113	-140,66
835,286	83,6
835,459	185,31
835,632	-43,38
835,805	-53,62
835,977	91,11
836,15	83,94
836,323	8,5
836,496	-202,09
836,669	76,77
836,842	121,14
837,015	-222,23
837,188	-69,32
837,36	142,65
837,533	136,84
837,706	-168,64
837,879	-196,97
838,051	212,62
838,224	85,99
838,397	-47,13
838,569	-189,47
838,742	250,17
838,915	304,09
839,087	-149,53
839,26	-112,33
839,433	263,48
839,605	193,5
839,778	222,86
839,95	-100,38
840,123	260,06
840,295	133,09
840,468	174,73
840,64	12,26
840,813	346,08
840,985	147,77
841,158	-29,72
841,33	-55,32
841,502	336,52
841,675	285,66
841,847	-150,55
842,019	-142,02
842,192	220,13
842,364	211,59
842,536	20,11
842,709	-42,35
842,881	188,04
843,053	106,47
843,225	-66,25
843,398	-247,49
843,57	135,82
843,742	205,79
843,914	-102,77
844,086	-302,79
844,258	200,67
844,43	77,11
844,602	-230,77
844,775	-21,53
844,947	190,09
845,119	179,51
845,291	-353,99
845,463	-324,97
845,635	205,79
845,807	103,74
845,979	-158,4
846,15	-203,46
846,322	142,65
846,494	238,56
846,666	-0,03
846,838	-158,4
847,01	265,52
847,182	149,47
847,354	-130,76
847,525	-143,73
847,697	177,46
847,869	169,27
848,041	-177,18
848,212	-251,59
848,384	262,45
848,556	207,16
848,727	-189,12
848,899	81,21
849,071	165,17
849,242	127,29
849,414	-227,35
849,585	-117,45
849,757	237,54
849,929	94,86
850,1	14,65
850,272	-227,69
850,443	83,26
850,615	32,06
850,786	-28,7
850,958	-10,61
851,129	139,57
851,3	272,01
851,472	-78,88
851,643	-40,31
851,815	82,91
851,986	115
852,157	-176,15
852,329	-454,34
852,5	305,8
852,671	67,9
852,842	-100,38
853,014	-5,83
853,185	252,55
853,356	128,99
853,527	-190,83
853,698	-109,25
853,87	53,22
854,041	60,39
854,212	-207,56
854,383	-128,71
854,554	185,65
854,725	264,16
854,896	-171,03
855,067	-142,7
855,238	212,28
855,409	80,18
855,58	-79,22
855,751	-358,08
855,922	170,98
856,093	-376,51
856,264	68,58
856,435	-129,05
856,606	225,59
856,777	182,58
856,948	-178,88
857,118	-1,39
857,289	185,31
857,46	-37,23
857,631	-150,55
857,802	-170,01
857,972	190,43
858,143	175,07
858,314	16,36
858,484	68,24
858,655	243
858,826	115,34
858,996	-76,49
859,167	-351,94
859,338	264,5
859,508	46,39
859,679	-117,79
859,849	25,23
860,02	265,18
860,19	74,38
860,361	-281,62
860,531	-36,89
860,702	188,73
860,872	91,79
861,043	4,07
861,213	-241,35
861,384	85,99
861,554	75,75
861,724	96,23
861,895	-28,02
862,065	-24,6
862,235	186
862,406	-151,92
862,576	-41,67
862,746	149,81
862,916	73,7
863,087	-289,47
863,257	-130,42
863,427	235,15
863,597	236,51
863,767	-177,86
863,937	42,98
864,108	112,61
864,278	180,19
864,448	-285,04
864,618	-241,35
864,788	167,56
864,958	112,95
865,128	-45,77
865,298	-134,85
865,468	194,53
865,638	222,52
865,808	-176,84
865,978	-378,9
866,148	115,34
866,318	289,42
866,487	-214,04
866,657	-51,23
866,827	93,15
866,997	266,21
867,167	-313,37
867,337	-131,44
867,506	201,7
867,676	182,24
867,846	-8,9
868,016	-230,77
868,185	184,97
868,355	101,35
868,525	-151,92
868,694	-123,25
868,864	192,82
869,034	45,71
869,203	-206,19
869,373	-176,84
869,542	211,94
869,712	195,89
869,881	-203,46
870,051	-50,89
870,22	173,71
870,39	163,47
870,559	-118,47
870,729	154,59
870,898	104,08
871,068	251,19
871,237	-16,75
871,406	8,85
871,576	85,64
871,745	185,31
871,914	-18,8
872,084	-72,39
872,253	209,89
872,422	135,82
872,591	-254,32
872,761	67,21
872,93	251,53
873,099	124,21
873,268	-75,8
873,437	130,7
873,607	247,09
873,776	106,81
873,945	-169,67
874,114	32,74
874,283	214,33
874,452	90,76
874,621	-168,99
874,79	-176,84
874,959	283,27
875,128	64,48
875,297	-213,36
875,466	-213,36
875,635	183,61
875,804	73,02
875,973	-43,72
876,142	-263,19
876,31	248,12
876,479	193,5
876,648	-103,79
876,817	25,57
876,986	246,41
877,155	77,45
877,323	58,34
877,492	-185,03
877,661	180,19
877,829	75,75
877,998	-117,79
878,167	-205,17
878,335	218,08
878,504	168,25
878,673	-36,55
878,841	142,65
879,01	134,11
879,178	189,41
879,347	-192,88
879,515	-55,32
879,684	89,4
879,852	161,76
880,021	-66,25
880,189	-190,83
880,358	141,28
880,526	-56,35
880,695	58,34
880,863	-174,79
881,031	222,52
881,2	272,01
881,368	53,56
881,536	-354,33
881,705	231,73
881,873	244,36
882,041	-175,81
882,21	-147,14
882,378	231,39
882,546	139,23
882,714	-134,85
882,882	26,25
883,05	76,43
883,219	45,71
883,387	35,13
883,555	-0,71
883,723	192,14
883,891	252,21
884,059	42,64
884,227	-236,23
884,395	169,95
884,563	231,05
884,731	-126,66
884,899	-244,76
885,067	160,74
885,235	163,47
885,403	-204,83
885,571	-168,64
885,739	273,38
