Data from Na 4_Subt6__0__13-53-55-797.txt Node

Date: Tue Feb 02 13:53:55 CET 2021
User: Praktikum
Spectrometer: USB4F03543
Trigger mode: 4
Integration Time (sec): 2,000000E-1
Scans to average: 9
Electric dark correction enabled: true
Nonlinearity correction enabled: false
Boxcar width: 0
XAxis mode: Wavelengths
Number of Pixels in Spectrum: 3648
>>>>>Begin Spectral Data<<<<<
179,969	408,08
180,181	408,08
180,394	408,08
180,606	397,61
180,819	323,65
181,031	-184,7
181,243	-222,47
181,456	121,13
181,668	216,71
181,88	-214,51
182,093	-52,94
182,305	181,89
182,518	229,68
182,73	-345,58
182,942	-158,76
183,155	203,73
183,367	225,81
183,579	-295,74
183,791	-169,91
184,004	203,73
184,216	215,57
184,428	-99,59
184,641	-114,16
184,853	274,5
185,065	247,88
185,277	-191,52
185,49	-142,37
185,702	231,95
185,914	184,62
186,126	-43,84
186,338	-112,56
186,551	346,41
186,763	184,62
186,975	52,19
187,187	-122,12
187,399	249,7
187,612	310,46
187,824	-0,61
188,036	-158,3
188,248	186,44
188,46	285,43
188,672	-157,85
188,885	-30,87
189,097	311,59
189,309	214,43
189,521	-87,08
189,733	-198,35
189,945	320,01
190,157	234,23
190,369	-113,25
190,581	-5,39
190,794	204,87
191,006	226,72
191,218	-9,48
191,43	-120,53
191,642	185,3
191,854	244,92
192,066	-214,96
192,278	-84,12
192,49	309,55
192,702	134,56
192,914	-118,48
193,126	-57,04
193,338	315,92
193,55	327,52
193,762	-50,67
193,974	129,55
194,186	288,38
194,398	191,9
194,61	-38,84
194,822	-157,39
195,034	215,34
195,246	52,87
195,457	-51,58
195,669	-201,54
195,881	259,49
196,093	264,72
196,305	-114,61
196,517	86,55
196,729	321,83
196,941	209,65
197,153	-196,07
197,365	-249,55
197,576	300,67
197,788	278,6
198	-168,54
198,212	-353,08
198,424	269,73
198,636	269,5
198,847	72,21
199,059	-172,41
199,271	293,85
199,483	234
199,695	-96,86
199,906	-125,99
200,118	194,86
200,33	221,26
200,542	-202,22
200,753	-80,48
200,965	330,03
201,177	294,98
201,389	-133,5
201,6	41,95
201,812	223,3
202,024	254,25
202,235	46,27
202,447	-259,33
202,659	310,91
202,871	298,4
203,082	-120,53
203,294	-47,71
203,506	269,04
203,717	293,62
203,929	-112,11
204,141	36,71
204,352	315,69
204,564	144,8
204,775	-113,25
204,987	-237,94
205,199	306,82
205,41	189,17
205,622	-116,2
205,833	-140,78
206,045	215,57
206,257	187,35
206,468	-33,6
206,68	-46,12
206,891	236,96
207,103	179,84
207,314	-72,74
207,526	-200,4
207,737	294,3
207,949	188,26
208,16	-90,72
208,372	-68,42
208,583	233,09
208,795	229,9
209,006	-105,74
209,218	-208,36
209,429	256,75
209,641	190,31
209,852	-87,76
210,064	-163,99
210,275	255,39
210,487	206,01
210,698	-172,41
210,909	-169,68
211,121	269,5
211,332	293,62
211,544	-232,48
211,755	-270,03
211,966	202,6
212,178	229,45
212,389	-293,24
212,6	-105,05
212,812	180,75
213,023	319,56
213,234	-136
213,446	-144,65
213,657	242,19
213,868	306,59
214,08	-340,34
214,291	-146,47
214,502	234,68
214,714	177,79
214,925	-78,2
215,136	-70,92
215,347	167,55
215,559	222,17
215,77	70,16
215,981	-310,99
216,192	312,96
216,404	255,62
216,615	-202,9
216,826	-146,47
217,037	140,48
217,249	308,18
217,46	-281,18
217,671	-75,93
217,882	330,94
218,093	328,43
218,304	-166,95
218,516	-123,94
218,727	226,72
218,938	244,01
219,149	-275,03
219,36	-235,44
219,571	273,14
219,782	246,51
219,993	-248,87
220,205	-10,62
220,416	235,14
220,627	157,31
220,838	-158,98
221,049	-406,56
221,26	350,73
221,471	250,61
221,682	-90,49
221,893	-145,56
222,104	221,03
222,315	256,75
222,526	52,41
222,737	-96,41
222,948	298,85
223,159	252,66
223,37	-52,72
223,581	-21,77
223,792	222,17
224,003	189,17
224,214	34,44
224,425	-191,75
224,636	253,57
224,847	224,21
225,058	-112,56
225,269	-143,51
225,48	278,6
225,691	292,71
225,902	-164,9
226,112	-0,38
226,323	294,53
226,534	246,29
226,745	-79,79
226,956	-11,98
227,167	234,68
227,378	271,32
227,589	-18,58
227,799	-273,21
228,01	297,94
228,221	247,65
228,432	-108,69
228,643	27,15
228,853	226,72
229,064	179,84
229,275	-107,33
229,486	-40,43
229,697	250,38
229,907	220,35
230,118	-73,88
230,329	118,4
230,54	258,12
230,75	224,21
230,961	-170,59
231,172	-79,57
231,383	228,77
231,593	340,27
231,804	99,06
232,015	-78,2
232,225	287,25
232,436	202,37
232,647	-201,76
232,857	-191,52
233,068	190,76
233,279	251,75
233,489	-95,04
233,7	-81,16
233,91	209,42
234,121	225,12
234,332	-97,77
234,542	-82,75
234,753	279,96
234,964	291,34
235,174	-56,58
235,385	-175,82
235,595	236,05
235,806	242,87
236,016	47,18
236,227	-64,55
236,437	300,9
236,648	346,87
236,858	-48,17
237,069	18,51
237,279	249,02
237,49	291,34
237,7	-53,85
237,911	-103,23
238,121	261,76
238,332	243,78
238,542	-172,64
238,753	-5,61
238,963	314,55
239,174	284,06
239,384	-23,82
239,595	-30,64
239,805	242,87
240,015	246,29
240,226	-46,57
240,436	-91,17
240,647	336,85
240,857	260,17
241,067	-98,45
241,278	-408,84
241,488	321,61
241,698	236,73
241,909	-34,28
242,119	-141,01
242,329	213,06
242,54	270,64
242,75	-41,34
242,96	100,43
243,171	204,87
243,381	309,09
243,591	55,6
243,801	-158,98
244,012	167,1
244,222	245,15
244,432	83,82
244,642	168,92
244,853	316,37
245,063	234,68
245,273	-89,12
245,483	-121,66
245,694	231,72
245,904	252,2
246,114	-124,4
246,324	65,61
246,534	249,93
246,744	278,83
246,955	172,56
247,165	-181,97
247,375	149,81
247,585	307,5
247,795	-63,18
248,005	-161,49
248,215	374,4
248,425	251,75
248,636	-302,57
248,846	46,72
249,056	366,43
249,266	322,06
249,476	-43,84
249,686	-25,41
249,896	275,19
250,106	227,17
250,316	-19,72
250,526	-219,97
250,736	313,64
250,946	230,59
251,156	-258,65
251,366	-26,09
251,576	256,98
251,786	317,06
251,996	7,13
252,206	50,14
252,416	309,77
252,626	301,81
252,836	68,11
253,046	-30,64
253,256	342,77
253,466	305,91
253,676	45,59
253,885	-104,83
254,095	260,17
254,305	221,94
254,515	-6,3
254,725	9,63
254,935	284,97
255,145	278,14
255,355	-24,73
255,564	8,04
255,774	315,46
255,984	95,88
256,194	-6,07
256,404	16,69
256,614	283,38
256,823	272
257,033	4,63
257,243	-78,43
257,453	423,1
257,662	279,74
257,872	-105,96
258,082	19,19
258,292	228,54
258,501	342,09
258,711	-468,23
258,921	-183,79
259,131	269,73
259,34	232,86
259,55	9,41
259,76	123,64
259,969	281,79
260,179	208,06
260,389	-15,17
260,598	-136,46
260,808	306,59
261,018	279,51
261,227	-99,82
261,437	179,61
261,647	365,3
261,856	311,59
262,066	-129,63
262,275	-269,35
262,485	318,42
262,694	255,16
262,904	-39,75
263,114	-123,48
263,323	281,79
263,533	309,55
263,742	-21,77
263,952	-41,11
264,161	311,14
264,371	308,41
264,58	0,3
264,79	27,38
264,999	84,04
265,209	345,5
265,418	-19,49
265,628	-32,46
265,837	367,8
266,047	318,19
266,256	-194,71
266,466	39,21
266,675	264,26
266,884	314,78
267,094	-99,82
267,303	-165,13
267,513	229,45
267,722	163
267,931	-59,09
268,141	-29,28
268,35	320,24
268,559	257,66
268,769	30,8
268,978	151,4
269,187	279,05
269,397	274,96
269,606	160,73
269,815	11,45
270,025	282,7
270,234	266,54
270,443	47,86
270,653	29,89
270,862	400,57
271,071	286,79
271,28	15,32
271,49	-91,86
271,699	195,77
271,908	205,1
272,117	-10,62
272,327	-58,41
272,536	306,59
272,745	243,1
272,954	-27,23
273,163	-173,09
273,372	57,19
273,582	146,16
273,791	-52,94
274	5,76
274,209	72,21
274,418	167,33
274,627	-139,64
274,836	-15,4
275,046	0,99
275,255	126,14
275,464	49
275,673	94,28
275,882	92,23
276,091	185,3
276,3	-116,2
276,509	-52,26
276,718	129,33
276,927	63,11
277,136	-29,51
277,345	-44,07
277,554	71,07
277,763	108,39
277,972	-84,12
278,181	-16,99
278,39	114,53
278,599	94,51
278,808	62,2
279,017	-70,24
279,226	66,98
279,435	-8,12
279,644	13,5
279,853	-32,92
280,062	-34,74
280,271	107,94
280,48	-65,91
280,688	6,67
280,897	185,08
281,106	74,26
281,315	-11,53
281,524	14,87
281,733	73,8
281,942	91,1
282,151	-9,25
282,359	-130,99
282,568	161,64
282,777	150,72
282,986	-66,6
283,195	2,58
283,403	105,66
283,612	122,73
283,821	17,82
284,03	31,93
284,238	-42,93
284,447	170,74
284,656	11
284,865	50,59
285,073	125
285,282	94,05
285,491	7,81
285,699	70,62
285,908	45,81
286,117	125,91
286,325	-54,54
286,534	-172,64
286,743	154,58
286,951	89,5
287,16	-91,86
287,369	0,08
287,577	94,97
287,786	159,36
287,995	22,83
288,203	57,42
288,412	36,26
288,62	63,11
288,829	13,73
289,037	103,16
289,246	108,85
289,455	183,71
289,663	-81,39
289,872	-134,86
290,08	26,02
290,289	160,5
290,497	13,5
290,706	-81,16
290,914	120,91
291,123	123,86
291,331	24,42
291,54	-57,49
291,748	139,34
291,957	55,6
292,165	-56,58
292,373	103,61
292,582	96,79
292,79	33,98
292,999	1,67
293,207	-39,97
293,415	122,04
293,624	107,03
293,832	-56,13
294,041	-43,61
294,249	106,57
294,457	204,65
294,666	-98,68
294,874	80,4
295,082	83,36
295,291	142,07
295,499	14,64
295,707	-38,84
295,915	14,18
296,124	105,66
296,332	-18,81
296,54	27,84
296,749	7,59
296,957	115,67
297,165	0,08
297,373	16
297,581	69,71
297,79	92,92
297,998	37,85
298,206	67,89
298,414	54,23
298,622	167,55
298,831	-136,46
299,039	-16,99
299,247	40,58
299,455	97,47
299,663	-105,51
299,871	-38,15
300,08	104,75
300,288	162,78
300,496	-82,75
300,704	-10,39
300,912	239,46
301,12	170,06
301,328	-77,75
301,536	-22,68
301,744	168,01
301,952	136,83
302,16	63,56
302,368	48,09
302,576	31,02
302,784	47,18
302,992	148,67
303,2	45,81
303,408	108,85
303,616	141,39
303,824	7,59
304,032	-120,3
304,24	-34,06
304,448	47,18
304,656	62,88
304,864	-93,68
305,072	98,61
305,28	48,32
305,488	-9,03
305,696	-24,27
305,904	104,52
306,111	121,36
306,319	-13,12
306,527	14,64
306,735	1,44
306,943	69,25
307,151	-109,83
307,359	101,34
307,566	145,94
307,774	82,45
307,982	-81,62
308,19	63,34
308,398	84,04
308,605	105,89
308,813	35,35
309,021	17,37
309,229	44,9
309,436	145,25
309,644	-144,19
309,852	-87,3
310,06	70,39
310,267	105,43
310,475	-61,36
310,683	16,69
310,89	119,09
311,098	100,65
311,306	13,73
311,513	-185,15
311,721	130,69
311,929	43,77
312,136	7,13
312,344	4,63
312,552	-12,67
312,759	228,99
312,967	-70,69
313,174	-82,3
313,382	110,44
313,589	54,23
313,797	7,59
314,005	-104,6
314,212	122,5
314,42	139,11
314,627	-39,75
314,835	73,58
315,042	96,1
315,25	89,96
315,457	-11,3
315,665	206,24
315,872	39,44
316,08	303,18
316,287	21,69
316,495	109,3
316,702	41,95
316,909	224,21
317,117	-85,71
317,324	-32,92
317,532	-63,18
317,739	162,09
317,946	51,5
318,154	21,69
318,361	97,24
318,569	-92,77
318,776	96,79
318,983	156,63
319,191	106,57
319,398	46,95
319,605	-23,82
319,813	-89,35
320,02	134,79
320,227	87,23
320,434	-33,37
320,642	-42,93
320,849	150,26
321,056	68,57
321,264	34,89
321,471	-4,02
321,678	36,26
321,885	225,58
322,092	-79,11
322,3	100,43
322,507	180,07
322,714	70,62
322,921	16,91
323,128	10,77
323,336	109,98
323,543	153,45
323,75	-22,22
323,957	-90,03
324,164	49,45
324,371	208,74
324,578	148,67
324,786	-0,15
324,993	116,58
325,2	36,03
325,407	181,89
325,614	77,9
325,821	65,38
326,028	137,74
326,235	-1,06
326,442	-12,67
326,649	101,56
326,856	122,27
327,063	125,68
327,27	-45,66
327,477	179,61
327,684	238,55
327,891	57,65
328,098	33,53
328,305	198,73
328,512	292,25
328,719	205,56
328,926	336,85
329,133	818,35
329,34	773,75
329,546	1073,67
329,753	1331,71
329,96	1709,67
330,167	1545,84
330,374	1398,16
330,581	1205,19
330,788	1171,97
330,995	725,74
331,201	430,15
331,408	274,5
331,615	354,6
331,822	168,46
332,029	39,67
332,235	49,68
332,442	70,84
332,649	191,22
332,856	108,39
333,062	49,23
333,269	165,73
333,476	208,74
333,683	42,17
333,889	-73,65
334,096	64,25
334,303	150,49
334,509	11,45
334,716	-4,48
334,923	154,58
335,129	46,95
335,336	88,37
335,543	-53,17
335,749	128,19
335,956	98,38
336,163	178,25
336,369	-48,17
336,576	189,85
336,782	79,26
336,989	94,05
337,196	-32,92
337,402	122,5
337,609	259,49
337,815	56,96
338,022	-72,51
338,228	21,92
338,435	245,15
338,641	-80,02
338,848	-34,74
339,054	126,37
339,261	196,45
339,467	147,07
339,674	36,03
339,88	97,47
340,087	163,23
340,293	77,9
340,5	90,19
340,706	-1,52
340,912	188,72
341,119	88,37
341,325	15,32
341,532	70,39
341,738	215,8
341,944	-26,32
342,151	-6,07
342,357	71,98
342,563	56,28
342,77	-17,45
342,976	145,48
343,182	208,97
343,389	98,83
343,595	21,47
343,801	131,6
344,007	61,06
344,214	246,51
344,42	-5,39
344,626	86,09
344,832	132,28
345,039	215,11
345,245	-22
345,451	59,92
345,657	56,51
345,864	159,59
346,07	-23,59
346,276	33,75
346,482	129,33
346,688	11,23
346,894	51,28
347,1	86,77
347,307	158,45
347,513	79,49
347,719	-4,25
347,925	9,41
348,131	185,53
348,337	202,14
348,543	49,45
348,749	75,17
348,955	197,59
349,161	110,67
349,367	-53,63
349,573	-53,63
349,779	130,69
349,985	165,96
350,191	56,96
350,397	-12,89
350,603	49
350,809	164,82
351,015	-33,37
351,221	63,56
351,427	-2,2
351,633	-29,73
351,839	-58,86
352,045	11
352,251	193,04
352,457	160,5
352,663	-47,48
352,869	21,24
353,075	102,7
353,28	167,78
353,486	46,72
353,692	-15,85
353,898	144,12
354,104	90,19
354,31	-73,65
354,515	91,55
354,721	179,39
354,927	157,31
355,133	-35,88
355,339	82,22
355,544	261,31
355,75	21,69
355,956	83,82
356,162	-32,69
356,367	297,94
356,573	-36,1
356,779	44,9
356,984	9,18
357,19	64,02
357,396	145,48
357,602	-114,38
357,807	19,19
358,013	186,9
358,218	236,96
358,424	121,36
358,63	96,1
358,835	187,12
359,041	217,62
359,247	43,54
359,452	105,2
359,658	238,1
359,863	147,07
360,069	12,82
360,274	-5,84
360,48	246,06
360,685	275,87
360,891	-16,76
361,097	54,01
361,302	203,28
361,508	145,48
361,713	40,13
361,918	-162,17
362,124	156,63
362,329	41,95
362,535	12,36
362,74	55,83
362,946	190,54
363,151	135,47
363,357	77,44
363,562	175,06
363,767	199,18
363,973	105,2
364,178	125,68
364,383	59,01
364,589	115,67
364,794	200,09
365	18,28
365,205	98,38
365,41	156,18
365,615	166,64
365,821	132,97
366,026	-70,69
366,231	143,21
366,437	44,22
366,642	153,67
366,847	-19,95
367,052	180,98
367,258	111,12
367,463	87
367,668	121,13
367,873	64,7
368,078	122,73
368,284	251,29
368,489	59,47
368,694	170,51
368,899	218,53
369,104	-154,89
369,309	-73,42
369,515	38,76
369,72	147,3
369,925	144,57
370,13	-23,82
370,335	210,33
370,54	190,99
370,745	-49,53
370,95	0,76
371,155	192,36
371,36	84,73
371,565	-37,24
371,77	11,23
371,975	215,11
372,18	202,37
372,385	-44,98
372,59	3,03
372,795	147,53
373	194,63
373,205	-100,05
373,41	76,31
373,615	134,79
373,82	226,04
374,025	-16,54
374,23	163,46
374,435	250,16
374,64	168,92
374,845	-42,02
375,05	61,29
375,254	193,27
375,459	146,85
375,664	121,36
375,869	34,89
376,074	159,13
376,279	130,01
376,483	-81,62
376,688	94,05
376,893	219,66
377,098	229,45
377,303	-29,96
377,507	16,69
377,712	277,23
377,917	104,29
378,122	2,58
378,326	74,49
378,531	145,48
378,736	202,14
378,94	115,67
379,145	49,91
379,35	99,29
379,554	189,17
379,759	90,64
379,964	13,5
380,168	218,53
380,373	164,6
380,578	-61,82
380,782	-311,22
380,987	20,56
381,191	267,9
381,396	-25,64
381,601	83,59
381,805	109,98
382,01	147,98
382,214	-8,34
382,419	67,2
382,623	186,21
382,828	174,38
383,032	122,04
383,237	152,54
383,441	178,02
383,646	109,3
383,85	106,34
384,055	-91,86
384,259	251,29
384,464	211,24
384,668	100,88
384,872	22,38
385,077	96,79
385,281	148,89
385,486	105,2
385,69	-33,6
385,894	135,24
386,099	62,2
386,303	-49,99
386,507	-77,75
386,712	0,3
386,916	196,91
387,12	129,33
387,325	-49,3
387,529	104,52
387,733	101,79
387,937	79,04
388,142	83,59
388,346	153,9
388,55	146,85
388,754	56,28
388,959	118,18
389,163	28,29
389,367	216,71
389,571	45,81
389,775	-24,73
389,98	168,69
390,184	41,49
390,388	31,02
390,592	-33,6
390,796	122,73
391	125,91
391,204	14,18
391,409	80,63
391,613	190,54
391,817	235,59
392,021	11
392,225	110,44
392,429	176,43
392,633	76,99
392,837	27,15
393,041	76,31
393,245	19,87
393,449	234
393,653	95,88
393,857	16,91
394,061	32,39
394,265	211,24
394,469	34,66
394,673	-94,81
394,877	120,45
395,081	196,45
395,285	-128,49
395,489	60,15
395,693	186,44
395,896	163,91
396,1	-72,29
396,304	77,9
396,508	201,23
396,712	166,64
396,916	95,42
397,12	39,9
397,323	219,66
397,527	57,42
397,731	-95,04
397,935	28,52
398,139	123,64
398,342	124,77
398,546	82,9
398,75	69,25
398,954	93,6
399,157	15,78
399,361	-52,72
399,565	100,65
399,769	124,09
399,972	135,47
400,176	67,2
400,38	-11,53
400,583	235,36
400,787	106,8
400,991	-26,55
401,194	-64,09
401,398	138,66
401,601	120,45
401,805	-40,66
402,009	60,83
402,212	139,11
402,416	115,44
402,619	142,98
402,823	-97,77
403,026	212,15
403,23	179,16
403,433	1,67
403,637	132,51
403,841	312,96
404,044	225,12
404,247	230,81
404,451	81,31
404,654	257,21
404,858	238,78
405,061	120
405,265	64,47
405,468	155,04
405,672	176,43
405,875	-90,26
406,078	94,05
406,282	173,93
406,485	223,08
406,689	-49,3
406,892	-120,98
407,095	174,15
407,299	227,86
407,502	4,63
407,705	155,27
407,909	183,71
408,112	165,73
408,315	-14,49
408,518	-73,2
408,722	176,2
408,925	193,5
409,128	-67,73
409,331	11,68
409,535	211,47
409,738	280,19
409,941	-145,79
410,144	75,4
410,347	238,55
410,551	158,45
410,754	121,36
410,957	-11,53
411,16	216,71
411,363	169,15
411,566	0,76
411,769	77,9
411,973	190,54
412,176	201,46
412,379	-163,99
412,582	-22
412,785	78,58
412,988	164,37
413,191	-17,9
413,394	38,53
413,597	239,46
413,8	112,94
414,003	-38,38
414,206	133,42
414,409	179,39
414,612	206,92
414,815	137,52
415,018	237,19
415,221	387,82
415,424	244,92
415,627	190,08
415,83	284,52
416,033	294,3
416,235	454,5
416,438	59,01
416,641	-36,56
416,844	306,59
417,047	325,02
417,25	175,97
417,453	131,15
417,655	210,79
417,858	242,42
418,061	118,18
418,264	182,8
418,467	348,91
418,669	423,32
418,872	200,55
419,075	443,35
419,278	539,37
419,48	415,59
419,683	432,65
419,886	488,86
420,089	462,69
420,291	416,27
420,494	308,18
420,697	180,52
420,899	237,19
421,102	319,56
421,305	-8,8
421,507	-27,69
421,71	212,61
421,912	235,14
422,115	76,08
422,318	-26,78
422,52	154,36
422,723	212,84
422,925	-35,65
423,128	-97,32
423,33	137,29
423,533	255,39
423,735	23,74
423,938	141,39
424,14	244,92
424,343	278,14
424,545	-48,62
424,748	-40,88
424,95	140,02
425,153	262,22
425,355	177,34
425,558	55,14
425,76	306,59
425,962	223,53
426,165	204,42
426,367	216,71
426,57	449,72
426,772	353,24
426,974	101,56
427,177	177,34
427,379	279,51
427,581	311,59
427,784	161,18
427,986	107,71
428,188	280,19
428,39	266,77
428,593	58,33
428,795	80,86
428,997	266,08
429,2	241,96
429,402	66,75
429,604	214,66
429,806	223,3
430,008	61,29
430,211	26,47
430,413	147,07
430,615	217,39
430,817	267,68
431,019	86,77
431,221	5,08
431,423	131,6
431,626	142,75
431,828	139,79
432,03	238,32
432,232	339,58
432,434	273,37
432,636	197,14
432,838	272
433,04	164,82
433,242	254,71
433,444	140,93
433,646	-14,26
433,848	364,84
434,05	274,05
434,252	275,19
434,454	200,55
434,656	401,48
434,858	419,45
435,06	341,4
435,262	194,86
435,464	430,83
435,666	311,37
435,868	52,19
436,07	122,95
436,271	328,21
436,473	317,28
436,675	-30,87
436,877	-0,38
437,079	271,09
437,281	206,47
437,482	74,03
437,684	149,81
437,886	168,01
438,088	237,41
438,29	-45,43
438,491	90,19
438,693	305,22
438,895	239,01
439,097	-38,38
439,298	50,59
439,5	105,66
439,702	235,36
439,903	51,5
440,105	90,19
440,307	185,53
440,508	114,53
440,71	49,23
440,912	-91,86
441,113	279,96
441,315	199,41
441,517	92,01
441,718	-33,6
441,92	149,35
442,121	125
442,323	97,01
442,524	183,71
442,726	94,51
442,928	235,14
443,129	100,65
443,331	77,44
443,532	228,54
443,734	137,29
443,935	-12,21
444,136	111,8
444,338	224,67
444,539	193,95
444,741	26,02
444,942	-43,84
445,144	142,3
445,345	53,1
445,546	183,48
445,748	36,03
445,949	180,75
446,151	271,55
446,352	192,13
446,553	-138,05
446,755	260,85
446,956	228,77
447,157	57,19
447,359	-16,76
447,56	183,94
447,761	363,48
447,962	-53,4
448,164	19,19
448,365	182,57
448,566	325,25
448,767	163
448,969	-48,17
449,17	192,13
449,371	196,91
449,572	33,98
449,773	82,22
449,974	283,15
450,176	226,95
450,377	120,68
450,578	-5,84
450,779	186,67
450,98	325,48
451,181	105,2
451,382	30,34
451,583	133,19
451,784	268,13
451,986	190,31
452,187	-31,55
452,388	220,57
452,589	141,16
452,79	16
452,991	133,88
453,192	146,16
453,393	136,38
453,594	25,11
453,795	207,15
453,995	260,85
454,196	303,4
454,397	243,33
454,598	353,46
454,799	373,49
455	371,9
455,201	329,34
455,402	34,89
455,603	394,88
455,804	332,98
456,004	191,9
456,205	158
456,406	205,78
456,607	209,88
456,808	-102,1
457,008	189,4
457,209	240,6
457,41	226,26
457,611	53,78
457,811	-168,54
458,012	208,29
458,213	233,77
458,414	91,1
458,614	107,25
458,815	185,99
459,016	272
459,216	59,24
459,417	114,53
459,618	154,36
459,818	206,92
460,019	169,37
460,22	178,93
460,42	158,22
460,621	183,03
460,821	127,28
461,022	-14,94
461,223	257,66
461,423	298,4
461,624	29,43
461,824	144,8
462,025	317,28
462,225	292,25
462,426	-29,05
462,626	186,67
462,827	131,37
463,027	94,28
463,228	-4,93
463,428	-45,21
463,628	287,47
463,829	101,11
464,029	201,91
464,23	227,86
464,43	188,26
464,63	218,3
464,831	262,9
465,031	187,81
465,231	322,74
465,432	290,89
465,632	-153,75
465,832	361,66
466,033	392,83
466,233	318,65
466,433	60,15
466,634	167,55
466,834	287,02
467,034	397,15
467,234	86,32
467,435	150,72
467,635	297,71
467,835	238,55
468,035	86,09
468,235	199,87
468,436	130,01
468,636	275,41
468,836	281,1
469,036	28,29
469,236	250,84
469,436	310,23
469,636	-64,09
469,836	220,12
470,037	254,48
470,237	346,87
470,437	-9,71
470,637	60,6
470,837	103,38
471,037	191,22
471,237	117,27
471,437	120
471,637	263,35
471,837	256,75
472,037	226,72
472,237	72,44
472,437	215,11
472,637	264,49
472,837	31,93
473,036	136,38
473,236	359,84
473,436	266,54
473,636	139,34
473,836	278,6
474,036	301,13
474,236	284,74
474,436	282,47
474,635	28,06
474,835	291,8
475,035	289,52
475,235	195,54
475,435	130,01
475,634	227,86
475,834	221,03
476,034	38,53
476,234	278,6
476,433	298,85
476,633	188,49
476,833	125,68
477,033	167,1
477,232	159,36
477,432	266,31
477,632	6,45
477,831	71,53
478,031	254,93
478,231	256,07
478,43	176,43
478,63	158,68
478,829	445,17
479,029	212,84
479,229	173,24
479,428	287,7
479,628	239,69
479,827	190,54
480,027	247,65
480,226	-111,42
480,426	249,47
480,625	387,82
480,825	177,11
481,024	181,43
481,224	110,89
481,423	339,58
481,623	8,27
481,822	237,87
482,021	322,97
482,221	282,01
482,42	89,5
482,62	218,3
482,819	226,04
483,018	317,97
483,218	272
483,417	163,46
483,616	339,58
483,816	345,04
484,015	113,4
484,214	284,97
484,414	338,45
484,613	525,72
484,812	237,64
485,011	374,17
485,211	245,38
485,41	319,56
485,609	306,82
485,808	120,91
486,008	411,26
486,207	413,54
486,406	310,68
486,605	288,38
486,804	408,53
487,003	417,18
487,203	313,19
487,402	486,58
487,601	417,63
487,8	514,57
487,999	377,58
488,198	263,81
488,397	320,47
488,596	589,89
488,795	373,72
488,994	272,46
489,193	449,72
489,392	370,76
489,591	307,27
489,79	287,25
489,989	393,29
490,188	434,93
490,387	184,62
490,586	196,68
490,785	417,86
490,984	369,85
491,183	268,36
491,382	250,16
491,581	524,58
491,779	529,36
491,978	450,17
492,177	415,59
492,376	626,98
492,575	666,35
492,774	525,49
492,972	634,72
493,171	556,67
493,37	581,47
493,569	330,94
493,768	235,82
493,966	468,61
494,165	527,77
494,364	143,43
494,563	121,13
494,761	424,69
494,96	354,37
495,159	224,44
495,357	357,56
495,556	365,3
495,755	312,96
495,953	352,55
496,152	557,81
496,35	919,16
496,549	1211,11
496,748	1224,31
496,946	1524,22
497,145	1861,68
497,343	2129,05
497,542	1976,14
497,74	1618,65
497,939	1751,09
498,137	1630,49
498,336	1227,72
498,534	997,44
498,733	1118,49
498,931	1018,83
499,13	886,16
499,328	688,19
499,527	721,87
499,725	577,38
499,924	413,99
500,122	466,33
500,32	441,98
500,519	396,7
500,717	184,17
500,915	264,26
501,114	224,21
501,312	358,24
501,51	326,39
501,709	180,98
501,907	248,79
502,105	417,86
502,304	139,79
502,502	185,3
502,7	252,43
502,898	400,57
503,097	188,26
503,295	192,81
503,493	420,82
503,691	246,74
503,889	355,28
504,088	334,35
504,286	393,51
504,484	385,55
504,682	192,58
504,88	213,52
505,078	271,09
505,276	335,26
505,474	54,23
505,672	263,58
505,871	376,22
506,069	515,71
506,267	235,59
506,465	153,45
506,663	420,59
506,861	293,62
507,059	123,86
507,257	135,92
507,455	333,67
507,653	332,07
507,851	223,3
508,049	302,04
508,246	203,28
508,444	339,13
508,642	202,37
508,84	118,18
509,038	307,73
509,236	392,6
509,434	250,61
509,632	114,08
509,829	335,49
510,027	377,36
510,225	104,75
510,423	329,34
510,621	350,28
510,818	375,76
511,016	174,61
511,214	162,09
511,412	300,9
511,609	375,54
511,807	138,2
512,005	278,37
512,203	310,68
512,4	292,94
512,598	203,05
512,796	308,86
512,993	339,36
513,191	482,49
513,389	350,28
513,586	472,47
513,784	707,08
513,981	849,98
514,179	538,69
514,377	692,97
514,574	750,32
514,772	906,42
514,969	498,41
515,167	690,24
515,364	585,79
515,562	728,24
515,759	251,75
515,957	487,72
516,154	614,47
516,352	412,86
516,549	248,56
516,746	360,52
516,944	414,45
517,141	469,74
517,339	377,13
517,536	249,47
517,733	415,59
517,931	462,92
518,128	277,01
518,325	370,76
518,523	430,38
518,72	367,57
518,917	240,37
519,115	170,74
519,312	314,78
519,509	348,91
519,707	362,34
519,904	302,95
520,101	339,58
520,298	302,72
520,495	171,2
520,693	474,98
520,89	527,54
521,087	401,71
521,284	110,67
521,481	405,8
521,678	403,07
521,876	453,13
522,073	178,48
522,27	285,65
522,467	331,85
522,664	488,86
522,861	206,47
523,058	196,68
523,255	383,05
523,452	466,1
523,649	316,6
523,846	336,63
524,043	420,14
524,24	474,07
524,437	169,6
524,634	308,64
524,831	411,26
525,028	384,18
525,225	380,54
525,422	174,38
525,619	426,74
525,816	371,67
526,013	24,42
526,209	206,69
526,406	371,21
526,603	361,88
526,8	410,35
526,997	225,81
527,194	401,02
527,39	368,48
527,587	394,42
527,784	223,99
527,981	394,65
528,177	419,68
528,374	216,02
528,571	102,02
528,768	496,82
528,964	484,31
529,161	331,39
529,358	147,98
529,554	515,03
529,751	441,98
529,948	470,2
530,144	305
530,341	425,37
530,537	480,44
530,734	232,41
530,931	220,35
531,127	376,9
531,324	464,96
531,52	256,98
531,717	379,63
531,913	330,25
532,11	492,04
532,306	244,24
532,503	445,4
532,699	440,39
532,896	516,39
533,092	214,43
533,289	429,01
533,485	608,55
533,682	417,18
533,878	187,35
534,074	301,81
534,271	423,1
534,467	533
534,664	285,65
534,86	318,42
535,056	469,52
535,253	553,71
535,449	282,92
535,645	328,89
535,841	379,18
536,038	481,8
536,234	392,38
536,43	241,05
536,626	583,29
536,823	532,32
537,019	412,4
537,215	360,06
537,411	644,5
537,607	578,74
537,804	498,87
538	440,62
538,196	598,99
538,392	514,12
538,588	342,31
538,784	429,92
538,98	574,64
539,176	651,1
539,373	460,64
539,569	427,19
539,765	694,79
539,961	635,4
540,157	522,54
540,353	639,72
540,549	918,02
540,745	942,37
540,941	818,81
541,137	851,58
541,333	921,89
541,528	996,07
541,724	909,83
541,92	892,54
542,116	1160,36
542,312	1004,95
542,508	1025,88
542,704	933,04
542,9	1151,26
543,096	1164,91
543,291	944,87
543,487	970,81
543,683	1226,58
543,879	1317,83
544,075	1020,42
544,27	1029,75
544,466	1130,1
544,662	1209,74
544,858	1099,15
545,053	990,38
545,249	1222,49
545,445	1432,52
545,64	1126,46
545,836	1009,27
546,032	1082,77
546,227	1068,89
546,423	638,59
546,619	726,19
546,814	916,88
547,01	833,14
547,205	701,62
547,401	668,62
547,597	832,92
547,792	910,97
547,988	447,67
548,183	719,14
548,379	749,4
548,574	729,84
548,77	639,27
548,965	609,69
549,161	796,28
549,356	861,13
549,552	541,42
549,747	485,44
549,942	697,3
550,138	719,14
550,333	598,08
550,529	621,07
550,724	803,56
550,919	816,08
551,115	576,47
551,31	408,53
551,505	739,62
551,701	723,01
551,896	499,78
552,091	505,92
552,287	842,93
552,482	775,8
552,677	588,75
552,872	701,16
553,067	780,12
553,263	645,19
553,458	644,96
553,653	458,14
553,848	672,95
554,043	604,23
554,239	609,23
554,434	611,74
554,629	914,38
554,824	845,66
555,019	676,82
555,214	704,35
555,409	735,3
555,604	794,01
555,799	685,46
555,994	678,64
556,189	809,48
556,384	973,54
556,579	716,86
556,774	639,72
556,969	1012
557,164	962,62
557,359	770,79
557,554	814,94
557,749	1144,66
557,944	1150,58
558,139	904,14
558,334	1057,51
558,529	1338,08
558,724	1364,71
558,918	1142,84
559,113	1363,8
559,308	1555,62
559,503	1595,9
559,698	1593,4
559,893	1609,32
560,087	1762,69
560,282	2063,97
560,477	1617,06
560,672	1859,4
560,866	2039,4
561,061	2223,26
561,256	2048,95
561,45	2147,71
561,645	2350,46
561,84	2625,8
562,034	2402,34
562,229	2662,21
562,424	3075,21
562,618	3076,58
562,813	3065,66
563,008	3382,87
563,202	3462,96
563,397	3680,28
563,591	3435,43
563,786	3431,79
563,98	3713,73
564,175	3632,72
564,369	3378,09
564,564	3260,44
564,758	3658,89
564,953	3543,74
565,147	3488,45
565,342	3668,44
565,536	3965,4
565,731	4167,69
565,925	4216,16
566,119	5068,12
566,314	6367,67
566,508	8062,25
566,703	10050,14
566,897	12718,87
567,091	15772,62
567,286	18779,04
567,48	20828,37
567,674	21913,11
567,868	22446,27
568,063	21923,58
568,257	20304,09
568,451	18072,72
568,646	16360,39
568,84	14989,61
569,034	13761,52
569,228	12558,45
569,422	12058,74
569,616	11217,71
569,811	10536,65
570,005	9363,62
570,199	8957,66
570,393	8020,6
570,587	7096,74
570,781	6516,71
570,975	6304,41
571,169	5724,6
571,364	5014,64
571,558	4910,42
571,752	5088,6
571,946	5135,7
572,14	4892,9
572,334	4799,83
572,528	5105,43
572,722	5100,2
572,916	4946,6
573,109	4796,65
573,303	5228,77
573,497	5225,13
573,691	4827,37
573,885	4911,1
574,079	5253,34
574,273	5245,15
574,467	5008,72
574,661	5155,04
574,854	5299,54
575,048	5391,01
575,242	5109,3
575,436	5212,61
575,63	5566,91
575,823	5442,89
576,017	5406,26
576,211	5578,52
576,405	5805,84
576,598	5821,77
576,792	5661,57
576,986	5593,08
577,18	6038,17
577,373	6040,67
577,567	5992,43
577,761	6059,33
577,954	6299,17
578,148	6394,74
578,341	6373,35
578,535	6330,8
578,729	6734,02
578,922	6809,8
579,116	6751,32
579,309	6880,34
579,503	7034,85
579,696	7271,73
579,89	7074,22
580,083	7283,56
580,277	7732,07
580,47	8044,95
580,664	8091,15
580,857	8562,18
581,051	9175,66
581,244	9770,02
581,437	10332,31
581,631	10850,44
581,824	11678,05
582,018	11906,74
582,211	12383,46
582,404	12521,36
582,598	12824,91
582,791	12854,49
582,984	12679,51
583,178	12781,68
583,371	13299,58
583,564	13532,6
583,757	13606,78
583,951	13868,01
584,144	14602,32
584,337	15071,76
584,53	15459,74
584,723	16162,65
584,917	17258,08
585,11	18054,74
585,303	19199,56
585,496	20317,75
585,689	23313,01
585,882	27003,23
586,075	62741,65
586,268	62644,48
586,462	64102,41
586,655	64053,26
586,848	63782,92
587,041	64022,54
587,234	64155,66
587,427	63997,96
587,62	64071,69
587,813	64055,3
588,006	63977,48
588,199	64143,37
588,392	63870,99
588,585	64000,01
588,777	64266,25
588,97	64253,96
589,163	63610,9
589,356	63735,82
589,549	64165,89
589,742	64292,87
589,935	64202,76
590,128	64129,03
590,32	64190,47
590,513	64204,81
590,706	64014,35
590,899	64270,34
591,092	64188,42
591,284	64288,77
591,477	63983,63
591,67	63944,71
591,863	64169,99
592,055	64352,26
592,248	63723,53
592,441	63916,04
592,633	64245,77
592,826	64231,43
593,019	64063,5
593,211	63842,32
593,404	64311,3
593,596	64272,39
593,789	64073,74
593,982	63981,58
594,174	64368,64
594,367	64323,59
594,559	64006,15
594,752	64342,02
594,944	64325,64
595,137	64270,34
595,329	64057,35
595,522	63985,67
595,714	64337,92
595,907	64204,81
596,099	64106,5
596,292	64169,99
596,484	64350,21
596,676	64321,54
596,869	63868,94
597,061	63713,29
597,253	64331,78
597,446	64311,3
597,638	64110,6
597,83	64071,69
598,023	64333,83
598,215	64481,28
598,407	64098,31
598,6	64317,44
598,792	64223,24
598,984	64251,91
599,176	64098,31
599,369	63887,37
599,561	64251,91
599,753	64421,89
599,945	63830,03
600,137	64219,14
600,329	64219,14
600,522	64391,17
600,714	64253,96
600,906	64301,06
601,098	64221,19
601,29	64438,27
601,482	64106,5
601,674	64073,74
601,866	64276,49
602,058	64342,02
602,25	63965,19
602,442	63834,12
602,634	64385,03
602,826	64331,78
603,018	64096,26
603,21	63934,47
603,402	64292,87
603,594	64382,98
603,786	64040,97
603,978	63811,6
604,17	64450,56
604,362	64307,2
604,554	63901,71
604,745	63940,62
604,937	64251,91
605,129	64282,63
605,321	64167,94
605,513	64155,66
605,704	64364,55
605,896	64223,24
606,088	64034,82
606,28	64114,7
606,471	64061,45
606,663	64309,25
606,855	64337,92
607,047	64002,06
607,238	64305,16
607,43	64198,66
607,622	63729,68
607,813	63997,96
608,005	64260,1
608,197	64008,2
608,388	63924,23
608,58	64002,06
608,771	63924,23
608,963	63983,63
609,154	63707,15
609,346	63510,54
609,537	63514,64
609,729	63465,49
609,921	62746,65
610,112	62855,19
610,303	63137,81
610,495	63283,22
610,686	62957,59
610,878	63473,68
611,069	63727,63
611,261	63610,9
611,452	63666,19
611,643	63625,23
611,835	63766,54
612,026	63809,55
612,217	63555,6
612,409	63768,59
612,6	63954,95
612,791	63961,1
612,983	63633,42
613,174	63436,82
613,365	64016,39
613,557	63981,58
613,748	63789,07
613,939	63688,72
614,13	64077,83
614,321	64157,7
614,513	63524,88
614,704	63672,33
614,895	64145,42
615,086	64237,57
615,277	63963,15
615,468	64032,78
615,659	64079,88
615,851	64325,64
616,042	63891,47
616,233	63903,75
616,424	64165,89
616,615	64090,12
616,806	64079,88
616,997	64260,1
617,188	64327,68
617,379	64186,37
617,57	63825,93
617,761	63879,18
617,952	64063,5
618,143	64098,31
618,334	64014,35
618,524	63961,1
618,715	64188,42
618,906	64370,69
619,097	64004,11
619,288	64315,4
619,479	64030,73
619,67	64217,09
619,86	64204,81
620,051	63957
620,242	64092,17
620,433	64221,19
620,624	63879,18
620,814	63940,62
621,005	64137,22
621,196	64129,03
621,386	63866,89
621,577	63957
621,768	64229,38
621,958	64235,53
622,149	64112,65
622,34	64014,35
622,53	64290,82
622,721	64219,14
622,912	63784,97
623,102	63965,19
623,293	64172,04
623,483	64229,38
623,674	63879,18
623,864	64059,4
624,055	64266,25
624,245	64210,95
624,436	64249,86
624,626	64161,8
624,817	64284,68
625,007	64366,6
625,198	64219,14
625,388	64075,78
625,579	64227,33
625,769	64288,77
625,959	63911,95
626,15	63934,47
626,34	64194,57
626,531	64065,54
626,721	63877,13
626,911	64223,24
627,101	64385,03
627,292	64327,68
627,482	64073,74
627,672	64079,88
627,863	64356,36
628,053	64026,63
628,243	63916,04
628,433	64321,54
628,623	64325,64
628,814	64391,17
629,004	63995,91
629,194	64124,94
629,384	64092,17
629,574	64288,77
629,764	63707,15
629,955	63840,27
630,145	64000,01
630,335	64182,28
630,525	64219,14
630,715	63893,52
630,905	64141,32
631,095	64301,06
631,285	64059,4
631,475	64223,24
631,665	64073,74
631,855	64376,84
632,045	64266,25
632,235	64213
632,425	64350,21
632,615	64458,75
632,805	64030,73
632,994	64147,46
633,184	64116,74
633,374	64346,12
633,564	64112,65
633,754	64088,07
633,944	64337,92
634,133	64348,16
634,323	64071,69
634,513	64065,54
634,703	64317,44
634,893	64387,08
635,082	63995,91
635,272	64186,37
635,462	64360,45
635,651	64282,63
635,841	64028,68
636,031	35809,26
636,221	64374,79
636,41	1197,68
636,6	10530,73
636,789	793,78
636,979	1104,61
637,169	1032,02
637,358	981,05
637,548	827,91
637,737	996,53
637,927	1013,59
638,116	932,81
638,306	880,47
638,495	987,65
638,685	1165,14
638,874	909,15
639,064	744,63
639,253	1002,9
639,443	1007,68
639,632	888,21
639,822	892,31
640,011	938,5
640,2	1067,75
640,39	746,9
640,579	778,53
640,768	1096,42
640,958	1031,11
641,147	1009,27
641,336	850,89
641,526	922,12
641,715	919,61
641,904	707,76
642,093	849,98
642,283	919,39
642,472	896,4
642,661	835,87
642,85	647,69
643,039	999,03
643,228	954,88
643,418	673,86
643,607	713,45
643,796	767,38
643,985	889,8
644,174	669,31
644,363	613,78
644,552	838,83
644,741	841,34
644,93	750,32
645,119	605,14
645,308	900,04
645,497	783,08
645,686	520,03
645,875	726,19
646,064	807,2
646,253	854,08
646,442	531,64
646,631	737,57
646,82	771,25
647,009	772,39
647,198	621,29
647,387	761,24
647,575	854,08
647,764	966,49
647,953	615,6
648,142	631,08
648,331	974,45
648,519	868,19
648,708	573,28
648,897	693,2
649,086	836,1
649,274	890,03
649,463	725,28
649,652	420,36
649,84	774,44
650,029	805,16
650,218	598,08
650,406	585,34
650,595	827,91
650,784	862,5
650,972	543,93
651,161	553,94
651,349	851,8
651,538	639,5
651,726	612,65
651,915	488,63
652,104	733,93
652,292	823,36
652,481	477,48
652,669	363,7
652,857	800,38
653,046	751,91
653,234	531,64
653,423	348,69
653,611	699,12
653,8	785,13
653,988	515,71
654,176	609,01
654,365	754,87
654,553	658,38
654,741	432,88
654,93	544,38
655,118	671,58
655,306	695,93
655,494	590,8
655,683	558,72
655,871	778,53
656,059	677,27
656,247	613,56
656,436	476,8
656,624	537,55
656,812	643,14
657	560,54
657,188	348,91
657,376	724,6
657,564	507,29
657,753	490,68
657,941	550,52
658,129	594,44
658,317	665,44
658,505	549,16
658,693	577,38
658,881	750,32
659,069	535,96
659,257	515,71
659,445	413,99
659,633	516,16
659,821	697,52
660,009	419
660,197	525,95
660,384	607,18
660,572	722,1
660,76	324,57
660,948	472,93
661,136	634,95
661,324	668,85
661,512	369,62
661,699	483,17
661,887	616,06
662,075	540,28
662,263	421,73
662,451	436,52
662,638	654,06
662,826	647,01
663,014	206,69
663,201	369,17
663,389	655,88
663,577	539,15
663,764	323,2
663,952	476,8
664,14	492,27
664,327	575,1
664,515	369,17
664,702	321,83
664,89	667,49
665,078	649,74
665,265	459,96
665,453	356,19
665,64	626,98
665,828	564,41
666,015	427,19
666,203	507,29
666,39	662,71
666,578	608,78
666,765	451,08
666,952	132,97
667,14	490,22
667,327	589,89
667,515	382,59
667,702	425,14
667,889	584,66
668,077	652,7
668,264	216,71
668,451	294,3
668,638	550,75
668,826	631,31
669,013	331,62
669,2	245,15
669,388	657,93
669,575	469,74
669,762	495,68
669,949	241,05
670,136	-2532,12
670,323	552,34
670,511	262,44
670,698	320,24
670,885	451,99
671,072	536,42
671,259	162,78
671,446	390,1
671,633	415,81
671,82	519,8
672,007	373,26
672,194	249,93
672,381	495,68
672,568	550,75
672,755	310
672,942	210,79
673,129	565,77
673,316	580,11
673,503	327,98
673,69	384,18
673,877	617,65
674,064	609,69
674,251	380,09
674,437	386,23
674,624	469,06
674,811	578,06
674,998	447,22
675,185	365,75
675,372	441,07
675,558	500,69
675,745	290,66
675,932	232,63
676,119	508,2
676,305	380,54
676,492	200,78
676,679	279,51
676,865	472,47
677,052	454,5
677,239	381,23
677,425	287,25
677,612	551,89
677,798	414,9
677,985	200,32
678,172	153,45
678,358	440,84
678,545	390,56
678,731	194,41
678,918	290,2
679,104	393,06
679,291	552,8
679,477	347,78
679,664	223,08
679,85	497,28
680,036	431,06
680,223	241,28
680,409	266,31
680,596	431,06
680,782	289,75
680,968	94,74
681,155	233,54
681,341	384,87
681,527	414,68
681,714	263,81
681,9	303,86
682,086	475,66
682,272	319,79
682,459	311,59
682,645	17,6
682,831	411,95
683,017	425,14
683,204	7,81
683,39	220,35
683,576	417,63
683,762	435,38
683,948	153,45
684,134	346,41
684,32	332,76
684,506	370,53
684,693	89,96
684,879	403,75
685,065	428,78
685,251	463,37
685,437	313,19
685,623	254,02
685,809	452,9
685,995	594,44
686,181	220,57
686,366	318,42
686,552	414,45
686,738	518,67
686,924	210,56
687,11	274,73
687,296	439,25
687,482	519,8
687,668	421,73
687,853	388,05
688,039	408,53
688,225	434,7
688,411	233,09
688,597	93,37
688,782	391,01
688,968	528,45
689,154	124,09
689,34	-41,34
689,525	465,65
689,711	473,61
689,897	-167,4
690,082	199,64
690,268	404,21
690,454	498,41
690,639	188,03
690,825	20,33
691,01	333,89
691,196	467,47
691,381	71,53
691,567	183,26
691,753	394,42
691,938	430,15
692,124	316,37
692,309	300,22
692,494	383,73
692,68	414,22
692,865	269,04
693,051	142,07
693,236	499,1
693,422	484,99
693,607	329,34
693,792	343,91
693,978	890,26
694,163	1701,26
694,348	2628,07
694,534	4312,87
694,719	6589,53
694,904	8177,16
695,089	9529,73
695,275	10345,73
695,46	10818,81
695,645	10399,43
695,83	9672,86
696,016	8871,65
696,201	8030,39
696,386	7276,05
696,571	6353,79
696,756	5730,75
696,941	5410,35
697,126	4989,38
697,311	4485,58
697,497	3985,2
697,682	3902,59
697,867	3508,02
698,052	2752,77
698,237	1898,09
698,422	1736,3
698,607	1402,71
698,792	803,79
698,977	483,17
699,162	600,36
699,347	654,97
699,531	246,06
699,716	200,09
699,901	375,31
700,086	432,42
700,271	174,15
700,456	14,18
700,641	455,64
700,825	329,34
701,01	12,36
701,195	175,06
701,38	395,56
701,565	602,86
701,749	220,12
701,934	362,34
702,119	521,63
702,303	479,07
702,488	121,82
702,673	69,71
702,857	355,06
703,042	411,95
703,227	142,3
703,411	180,52
703,596	351,87
703,78	368,94
703,965	307,27
704,15	467,7
704,334	1054,78
704,519	1866
704,703	2841,06
704,888	3878,93
705,072	5062,88
705,257	6037,72
705,441	6626,39
705,625	6197
705,81	6593,63
705,994	6270,96
706,179	5405,12
706,363	4922,03
706,547	4732,7
706,732	4162,23
706,916	3542,83
707,1	3273,64
707,285	3134,38
707,469	2903,87
707,653	2375,04
707,837	2069,21
708,022	1912,88
708,206	1531,73
708,39	1027,93
708,574	586,48
708,759	751,23
708,943	676,59
709,127	174,15
709,311	128,87
709,495	433,79
709,679	409,67
709,863	135,24
710,047	167,33
710,231	370,3
710,415	417,63
710,6	20,78
710,784	277,46
710,968	231,95
711,152	412,86
711,336	196,91
711,519	107,71
711,703	243,78
711,887	315,92
712,071	129,78
712,255	262,44
712,439	363,02
712,623	583,75
712,807	463,83
712,991	525,27
713,174	898,68
713,358	918,7
713,542	702,53
713,726	806,07
713,91	991,52
714,093	1017,46
714,277	646,55
714,461	430,38
714,645	723,69
714,828	713,91
715,012	507,29
715,196	512,75
715,379	595,12
715,563	491,82
715,747	212,61
715,93	157,77
716,114	370,3
716,297	477,25
716,481	217,39
716,664	84,04
716,848	379,86
717,031	314,78
717,215	204,65
717,398	56,96
717,582	314,1
717,765	209,88
717,949	144,12
718,132	97,24
718,316	332,53
718,499	360,29
718,682	-28,82
718,866	191,45
719,049	364,61
719,233	289,29
719,416	75,85
719,599	-44,98
719,782	377,58
719,966	349,6
720,149	158,45
720,332	-29,96
720,515	315,92
720,699	344,36
720,882	77,9
721,065	165,96
721,248	379,18
721,431	384,18
721,615	152,31
721,798	26,7
721,981	233,32
722,164	386,69
722,347	65,61
722,53	-84,35
722,713	330,25
722,896	326,84
723,079	71,75
723,262	-17,67
723,445	255,39
723,628	345,96
723,811	125,23
723,994	112,26
724,177	345,5
724,36	339,81
724,543	108,85
724,726	264,04
724,909	638,36
725,091	821,54
725,274	1167,87
725,457	1539,92
725,64	2057,6
725,823	2327,93
726,006	2335,44
726,188	2382,77
726,371	2379,13
726,554	2349,32
726,737	1985,7
726,919	1790
727,102	1861,91
727,285	1732,66
727,467	1290,75
727,65	1052,96
727,833	1218,84
728,015	943,96
728,198	577,6
728,38	391,47
728,563	520,94
728,746	463,37
728,928	207,15
729,111	237,19
729,293	381,91
729,476	329,34
729,658	120,22
729,841	191,22
730,023	334,58
730,205	388,73
730,388	82,68
730,57	78,35
730,753	369,17
730,935	450,63
731,117	-25,64
731,3	162,32
731,482	371,67
731,664	282,92
731,847	118,4
732,029	41,49
732,211	333,89
732,394	381,45
732,576	77,44
732,758	-69,78
732,94	261,53
733,122	333,44
733,305	-57,04
733,487	163
733,669	355,74
733,851	423,1
734,033	99,52
734,215	125,23
734,397	344,59
734,58	339,13
734,762	197,82
734,944	134,1
735,126	390,1
735,308	502,06
735,49	419,68
735,672	383,27
735,854	1010,63
736,036	1999,58
736,218	2973,95
736,399	4990,29
736,581	6987,29
736,763	8733,52
736,945	9962,53
737,127	10874,56
737,309	11141,48
737,491	10691,84
737,672	9862,64
737,854	9024,79
738,036	8267,5
738,218	7373,67
738,4	6253,66
738,581	4862,64
738,763	3898,27
738,945	2948,7
739,127	1816,4
739,308	1188,13
739,49	1087,55
739,672	893,9
739,853	374,17
740,035	448,13
740,216	617,42
740,398	625,84
740,58	267,45
740,761	243,56
740,943	331,62
741,124	400,57
741,306	179,16
741,487	154,36
741,669	421,27
741,85	343,91
742,032	128,19
742,213	250,61
742,394	379,18
742,576	493,41
742,757	13,73
742,939	29,43
743,12	343
743,301	411,49
743,483	270,18
743,664	150,26
743,845	357,33
744,027	459,28
744,208	197,36
744,389	148,67
744,57	420,36
744,752	332,53
744,933	178,25
745,114	193,95
745,295	375,31
745,476	278,37
745,657	195,09
745,839	231,04
746,02	418,09
746,201	417,41
746,382	104,98
746,563	-1,06
746,744	343,68
746,925	406,71
747,106	155,72
747,287	10,77
747,468	482,49
747,649	450,4
747,83	550,98
748,011	1184,26
748,192	2761,42
748,373	4176,34
748,554	5567,82
748,735	6896,04
748,915	8890,54
749,096	10260,4
749,277	11285,29
749,458	12628,53
749,639	13938,78
749,82	14653,97
750	14941,6
750,181	14513,12
750,362	13948,56
750,543	12420,55
750,723	10670,22
750,904	9190,45
751,085	7791
751,265	6382,46
751,446	5028,98
751,627	3825,68
751,807	2940,73
751,988	2110,39
752,169	1291,66
752,349	1012,23
752,53	954,66
752,71	743,49
752,891	212,38
753,071	341,18
753,252	615,38
753,432	565,77
753,613	279,28
753,793	268,13
753,974	541,65
754,154	449,49
754,334	194,86
754,515	434,47
754,695	356,65
754,876	451,77
755,056	-37,47
755,236	198,27
755,417	374,85
755,597	477,71
755,777	141,61
755,957	142,98
756,138	370,99
756,318	433,34
756,498	232,86
756,678	158,68
756,859	275,87
757,039	376,9
757,219	190,76
757,399	221,26
757,579	437,2
757,759	484,31
757,939	390,1
758,119	-73,2
758,3	437,66
758,48	444,26
758,66	262,22
758,84	267,68
759,02	377,36
759,2	509,79
759,38	127,05
759,56	132,06
759,74	406,03
759,919	448,81
760,099	176,66
760,279	217,39
760,459	473,16
760,639	631,99
760,819	931,45
760,999	3137,79
761,178	7837,88
761,358	14791,42
761,538	23546,48
761,718	30711,42
761,898	38340,78
762,077	45217,63
762,257	46920,63
762,437	45471,13
762,616	41590,45
762,796	36204,07
762,976	30998,81
763,155	25246,07
763,335	20585,8
763,515	16376,09
763,694	12055,56
763,874	9062,34
764,053	7235,78
764,233	6762,7
764,413	7109,71
764,592	8311,87
764,772	9765,25
764,951	11676
765,131	12571,65
765,31	12601,91
765,489	12205,97
765,669	11060,02
765,848	9435,52
766,028	8036,08
766,207	6594,08
766,386	5554,17
766,566	4414,59
766,745	3355,1
766,924	2536,6
767,104	2060,56
767,283	1537,42
767,462	1428,65
767,642	2352,96
767,821	3391,06
768	4487,4
768,179	5295,44
768,358	6657,57
768,538	7449,68
768,717	7355,47
768,896	6932,91
769,075	6470,06
769,254	5762,15
769,433	4560,9
769,612	3699,62
769,791	3817,94
769,97	4271
770,149	5559,86
770,328	7844,93
770,507	10441,08
770,686	12765,52
770,865	15004,41
771,044	16440,94
771,223	16509,89
771,402	15064,93
771,581	13020,61
771,76	11156,04
771,939	9002,26
772,118	7400,52
772,297	5788,55
772,475	4694,7
772,654	3869,83
772,833	3039,26
773,012	1646,19
773,191	1132,15
773,369	1126,69
773,548	900,95
773,727	733,48
773,906	210,56
774,084	526,4
774,263	527,09
774,442	276,55
774,62	352,1
774,799	423,32
774,977	331,62
775,156	88,82
775,335	110,21
775,513	398,75
775,692	439,48
775,87	-102,78
776,049	171,65
776,227	417,86
776,406	436,75
776,584	171,2
776,763	-35,42
776,941	392,38
777,119	299,76
777,298	236,05
777,476	-73,2
777,655	413,77
777,833	423,32
778,011	-47,25
778,19	51,73
778,368	333,44
778,546	386,69
778,725	-65,23
778,903	163,69
779,081	378,27
779,259	447,9
779,437	106,12
779,616	127,28
779,794	321,61
779,972	485,22
780,15	133,65
780,328	25,56
780,506	277,01
780,685	359,15
780,863	150,26
781,041	237,19
781,219	345,96
781,397	308,64
781,575	19,87
781,753	136,61
781,931	288,16
782,109	390,33
782,287	88,82
782,465	66,98
782,643	230,81
782,82	263,58
782,998	-121,44
783,176	-31,55
783,354	338,67
783,532	411,03
783,71	83,36
783,888	38,3
784,065	216,48
784,243	312,28
784,421	54,46
784,599	40,58
784,776	265,4
784,954	351,87
785,132	41,95
785,31	124,55
785,487	299,99
785,665	294,07
785,842	31,48
786,02	-201,54
786,198	333,44
786,375	409,67
786,553	45,36
786,73	64,02
786,908	284,06
787,085	277,46
787,263	173,24
787,44	127,28
787,618	322,97
787,795	380,77
787,973	211,93
788,15	104,07
788,328	252,43
788,505	240,14
788,682	-1,06
788,86	130,69
789,037	279,28
789,215	335,94
789,392	136,61
789,569	17,14
789,746	307,73
789,924	311,59
790,101	-7,43
790,278	-28,37
790,455	375,31
790,633	293,39
790,81	79,72
790,987	83,82
791,164	337,54
791,341	334,12
791,518	240,83
791,695	71,07
791,873	427,65
792,05	470,88
792,227	432,88
792,404	1055,01
792,581	2224,4
792,758	3771,07
792,935	4941,37
793,112	5709,81
793,289	6853,49
793,466	7129,51
793,643	6906,05
793,82	6118,5
793,996	5155,27
794,173	4427,33
794,35	3674,81
794,527	2989,66
794,704	2884,75
794,881	2612,83
795,057	2024,38
795,234	1792,73
795,411	1508,75
795,588	1054,1
795,765	805,38
795,941	468,83
796,118	586,71
796,295	619,93
796,471	140,7
796,648	278,14
796,825	335,03
797,001	489,54
797,178	21,01
797,354	98,83
797,531	382,82
797,708	428,1
797,884	160,96
798,061	531,64
798,237	1086,18
798,414	1803,88
798,59	2254,66
798,767	3072,71
798,943	4179,98
799,119	5301,81
799,296	6377,68
799,472	7516,58
799,649	8551,94
799,825	8679,59
800,001	8926,94
800,178	8769,25
800,354	8509,61
800,53	7515,67
800,707	6259,81
800,883	5269,95
801,059	4745,67
801,235	3870,96
801,411	3409,72
801,588	2933,68
801,764	2609,42
801,94	2030,75
802,116	1460,05
802,292	1078,45
802,468	961,48
802,645	775,8
802,821	266,77
802,997	288,84
803,173	464,74
803,349	520,49
803,525	253,8
803,701	165,51
803,877	390,1
804,053	401,93
804,229	246,29
804,405	85,64
804,581	497,73
804,756	502,74
804,932	209,2
805,108	209,42
805,284	444,49
805,46	422,87
805,636	168,92
805,812	251,52
805,987	413,08
806,163	400,8
806,339	-1694,05
806,515	263,13
806,69	341,4
806,866	414,68
807,042	75,4
807,217	190,99
807,393	418,77
807,569	570,32
807,744	419,45
807,92	1006,77
808,096	2731,84
808,271	4139,7
808,447	5530,5
808,622	6580,2
808,798	7893,4
808,973	9405,26
809,149	11501,7
809,324	14250,75
809,5	17879,75
809,675	20386,24
809,851	22129,06
810,026	23368,31
810,201	24205,7
810,377	23066,12
810,552	20309,1
810,728	17150,22
810,903	15064,25
811,078	13404,26
811,253	11424,1
811,429	10531,19
811,604	9388,65
811,779	8208,56
811,955	6403,16
812,13	4887,67
812,305	3800,2
812,48	2673,13
812,655	1511,7
812,83	1074,12
813,006	1128,05
813,181	938,05
813,356	718,23
813,531	694,11
813,706	670,44
813,881	654,74
814,056	397,84
814,231	244,92
814,406	495
814,581	680
814,756	303,18
814,931	256,3
815,106	580,79
815,281	601,5
815,456	309,32
815,631	815,85
815,805	2128,6
815,98	3807,25
816,155	6317,83
816,33	9160,41
816,505	11854,63
816,68	13762,65
816,854	15825,19
817,029	18317,11
817,204	21658,48
817,379	24627,36
817,553	27380,05
817,728	29615,07
817,903	31747,23
818,077	32435,35
818,252	31873,98
818,427	29543,39
818,601	26401,12
818,776	22784,64
818,95	19942,29
819,125	17329,08
819,299	15863,87
819,474	14244,15
819,648	12507,93
819,823	10326,84
819,997	8675,95
820,172	6551,76
820,346	4481,94
820,521	3063,15
820,695	2375,49
820,87	1896,27
821,044	1171,74
821,218	915,75
821,393	922,57
821,567	900,04
821,741	469,97
821,916	438,8
822,09	599,68
822,264	732,79
822,438	435,16
822,613	283,61
822,787	470,88
822,961	566
823,135	136,83
823,309	293,85
823,483	467,01
823,658	555,08
823,832	298,17
824,006	986,29
824,18	1592,49
824,354	2271,73
824,528	2617,61
824,702	2987,83
824,876	3722,83
825,05	4007,95
825,224	3756,05
825,398	3408,35
825,572	3469,79
825,746	3049,05
825,92	2444,9
826,093	2478,57
826,267	2512,71
826,441	2488,13
826,615	1875,56
826,789	1579,51
826,963	1727,65
827,136	1332,85
827,31	824,27
827,484	740,3
827,658	731,88
827,831	530,04
828,005	279,51
828,179	339,13
828,353	372,12
828,526	395,33
828,7	173,7
828,873	220,12
829,047	258,8
829,221	403,07
829,394	20,78
829,568	77,9
829,741	325,02
829,915	406,71
830,088	-121,89
830,262	-148,52
830,435	271,32
830,609	248,79
830,782	21,47
830,956	-8,12
831,129	246,74
831,302	372,81
831,476	87
831,649	136,83
831,822	244,69
831,996	228,54
832,169	-151,7
832,342	263,35
832,516	395,11
832,689	368,03
832,862	-34,28
833,035	-145,1
833,209	138,88
833,382	282,24
833,555	206,24
833,728	118,63
833,901	212,84
834,074	315,01
834,247	75,17
834,42	-41,11
834,594	224,21
834,767	221,26
834,94	-118,48
835,113	7,36
835,286	170,97
835,459	241,05
835,632	54,23
835,805	32,39
835,977	198,5
836,15	196,68
836,323	80,86
836,496	-67,28
836,669	193,95
836,842	244,47
837,015	-70,24
837,188	38,3
837,36	273,37
837,533	278,6
837,706	-1,52
837,879	38,3
838,051	408,3
838,224	524,58
838,397	718,91
838,569	1178,57
838,742	2208,92
838,915	2909,56
839,087	3058,38
839,26	3446,81
839,433	4164,96
839,605	4362,7
839,778	4328,34
839,95	4257,12
840,123	4894,72
840,295	5294,3
840,468	6105,07
840,64	6488,95
840,813	7340
840,985	7423,28
841,158	7309,05
841,33	7038,03
841,502	6814,81
841,675	6137,84
841,847	5131,83
842,019	4587,3
842,192	4657,84
842,364	4351,55
842,536	3832,96
842,709	3451,36
842,881	3263,17
843,053	2627,39
843,225	1869,42
843,398	1220,89
843,57	1179,48
843,742	929,4
843,914	496,14
844,086	167,1
844,258	477,94
844,43	362,34
844,602	60,15
844,775	155,95
844,947	372,12
845,119	348,46
845,291	-115,52
845,463	-135,32
845,635	304,54
845,807	238,55
845,979	-23,13
846,15	-85,26
846,322	301,58
846,494	351,42
846,666	91,55
846,838	-28,37
847,01	326,39
847,182	251,07
847,354	-8,12
847,525	-43,16
847,697	251,98
847,869	231,27
848,041	-60,23
848,212	-59,54
848,384	329,8
848,556	310
848,727	-93,45
848,899	142,3
849,071	239,92
849,242	249,47
849,414	-56,13
849,585	126,59
849,757	501,83
849,929	577,15
850,1	636,08
850,272	687,28
850,443	1100,52
850,615	1186,08
850,786	1199,73
850,958	1292,34
851,129	1469,38
851,3	1534
851,472	1161,5
851,643	1166,28
851,815	1265,49
851,986	1261,62
852,157	909,15
852,329	676,59
852,5	1182,66
852,671	951,7
852,842	561,45
853,014	533
853,185	639,95
853,356	431,51
853,527	58,33
853,698	79,49
853,87	232,86
854,041	264,26
854,212	-65
854,383	22,15
854,554	281,33
854,725	381,23
854,896	-44,75
855,067	-29,73
855,238	262,44
855,409	159,82
855,58	-27,91
855,751	-201,08
855,922	252,43
856,093	-174,68
856,264	108,85
856,435	-40,88
856,606	248,56
856,777	273,37
856,948	-58,63
857,118	41,72
857,289	233,54
857,46	142,07
857,631	-26,55
857,802	-92,77
857,972	296,8
858,143	278,83
858,314	28,75
858,484	105,2
858,655	258,58
858,826	196,68
858,996	-10,85
859,167	-217,01
859,338	332,53
859,508	123,18
859,679	-41,79
859,849	82,68
860,02	305,68
860,19	145,94
860,361	-174
860,531	-1,52
860,702	276,78
860,872	188,72
861,043	31,02
861,213	-135,09
861,384	158,45
861,554	131,37
861,724	92,46
861,895	46,72
862,065	94,28
862,235	215,57
862,406	-58,18
862,576	31,48
862,746	183,26
862,916	167,33
863,087	-150,34
863,257	-46,12
863,427	269,5
863,597	308,18
863,767	-80,71
863,937	55,37
864,108	206,92
864,278	236,05
864,448	-138,28
864,618	-133,95
864,788	254,93
864,958	282,24
865,128	116,58
865,298	76,76
865,468	413,77
865,638	401,25
865,808	154,81
865,978	-29,73
866,148	325,48
866,318	522,54
866,487	103,84
866,657	191,45
866,827	339,58
866,997	474,75
867,167	-13,35
867,337	88,59
867,506	415,81
867,676	333,44
867,846	64,93
868,016	-73,88
868,185	238,78
868,355	187,58
868,525	-12,44
868,694	-38,15
868,864	276,1
869,034	121,13
869,203	-103,46
869,373	-118,25
869,542	296,12
869,712	236,05
869,881	-120,98
870,051	-27,69
870,22	211,24
870,39	193,04
870,559	-68,64
870,729	124,09
870,898	164,37
871,068	309,77
871,237	-9,03
871,406	27,84
871,576	131,83
871,745	234
871,914	13,05
872,084	-26,09
872,253	240,37
872,422	191,22
872,591	-151,7
872,761	100,65
872,93	285,65
873,099	150,26
873,268	-16,31
873,437	152,76
873,607	272
873,776	145,94
873,945	-112,79
874,114	80,17
874,283	250,16
874,452	157,09
874,621	-105,74
874,79	-77,97
874,959	293,85
875,128	133,65
875,297	-158,07
875,466	-123,26
875,635	241,05
875,804	145,48
875,973	-8,34
876,142	-171,95
876,31	239,01
876,479	209,65
876,648	-3,56
876,817	39,44
876,986	291,57
877,155	148,67
877,323	94,97
877,492	-100,73
877,661	228,54
877,829	114,99
877,998	-69,78
878,167	-129,63
878,335	225,58
878,504	130,92
878,673	-6,52
878,841	149,35
879,01	156,63
879,178	230,13
879,347	-119,84
879,515	19,65
879,684	187,12
879,852	147,53
880,021	-45,43
880,189	-101,87
880,358	185,08
880,526	76,08
880,695	72,44
880,863	-95,72
881,031	235,59
881,2	289,07
881,368	71,98
881,536	-203,81
881,705	251,98
881,873	282,47
882,041	-87,3
882,21	-94,13
882,378	270,86
882,546	184,17
882,714	-69,56
882,882	56,28
883,05	142,75
883,219	111,35
883,387	80,17
883,555	49,23
883,723	198,73
883,891	242,87
884,059	67,43
884,227	-136
884,395	228,08
884,563	302,04
884,731	-66,37
884,899	-132,81
885,067	206,01
885,235	197,36
885,403	-104,14
885,571	-112,11
885,739	291,34
