Data from Na 5_Subt6__0__13-51-58-333.txt Node

Date: Tue Feb 02 13:51:58 CET 2021
User: Praktikum
Spectrometer: USB4F03543
Trigger mode: 4
Integration Time (sec): 2,000000E-1
Scans to average: 9
Electric dark correction enabled: true
Nonlinearity correction enabled: false
Boxcar width: 0
XAxis mode: Wavelengths
Number of Pixels in Spectrum: 3648
>>>>>Begin Spectral Data<<<<<
179,969	396,81
180,181	396,81
180,394	396,81
180,606	387,03
180,819	338,33
181,031	-177,3
181,243	-248,07
181,456	147,19
181,668	198,84
181,88	-214,85
182,093	-71,26
182,305	214,09
182,518	247,99
182,73	-333,4
182,942	-146,13
183,155	174,95
183,367	207,94
183,579	-281,29
183,791	-168,88
184,004	198,16
184,216	153,79
184,428	-125,87
184,641	-133,38
184,853	228,42
185,065	218,87
185,277	-192,55
185,49	-183,67
185,702	214,77
185,914	147,42
186,126	-75,13
186,338	-153,86
186,551	287,59
186,763	167,44
186,975	13,84
187,187	-158,64
187,399	239,12
187,612	299,88
187,824	-48,96
188,036	-174,8
188,248	168,58
188,46	288,95
188,672	-203,7
188,885	-77,41
189,097	276,44
189,309	174,95
189,521	-121,78
189,733	-203,7
189,945	296,69
190,157	222,51
190,369	-155,23
190,581	-24,61
190,794	176,77
191,006	224,1
191,218	-47,14
191,43	-147,95
191,642	162,43
191,854	200,89
192,066	-220,31
192,278	-91,51
192,49	282,58
192,702	104,86
192,914	-118,82
193,126	-106,3
193,338	288,73
193,55	303,52
193,762	-95,15
193,974	96,44
194,186	229,56
194,398	162,66
194,61	-50,33
194,822	-172,29
195,034	194,29
195,246	61,86
195,457	-119,73
195,669	-208,02
195,881	237,07
196,093	221,83
196,305	-109,95
196,517	58,44
196,729	292,82
196,941	174,27
197,153	-196,87
197,365	-267,87
197,576	269,84
197,788	245,95
198	-174,34
198,212	-375,5
198,424	235,02
198,636	225,01
198,847	18,85
199,059	-192,09
199,271	265,06
199,483	244,13
199,695	-110,86
199,906	-167,74
200,118	162,43
200,33	192,02
200,542	-246,25
200,753	-116,54
200,965	298,06
201,177	278,94
201,389	-147,49
201,6	41,15
201,812	193,15
202,024	221,37
202,235	0,42
202,447	-288,12
202,659	279,85
202,871	246,17
203,082	-183,9
203,294	-56,93
203,506	257,32
203,717	265,06
203,929	-157,5
204,141	15,44
204,352	304,2
204,564	86,89
204,775	-126,1
204,987	-255,35
205,199	231,61
205,41	176,09
205,622	-159,1
205,833	-163,65
206,045	198,39
206,257	160,39
206,468	2,69
206,68	-85,37
206,891	228,2
207,103	171,99
207,314	-82,87
207,526	-224,86
207,737	276,67
207,949	169,94
208,16	-141,35
208,372	-76,5
208,583	213,86
208,795	205,9
209,006	-103,57
209,218	-219,17
209,429	221,6
209,641	155,84
209,852	-82,18
210,064	-162,28
210,275	220,92
210,487	200,89
210,698	-186,18
210,909	-214,16
211,121	241,39
211,332	229,79
211,544	-268,09
211,755	-284,93
211,966	202,26
212,178	195,66
212,389	-298,13
212,6	-147,72
212,812	141,04
213,023	272,34
213,234	-129,29
213,446	-177,3
213,657	220,46
213,868	299,88
214,08	-387,1
214,291	-149,31
214,502	221,37
214,714	155,84
214,925	-103,8
215,136	-97,43
215,347	140,13
215,559	168,58
215,77	39,56
215,981	-345,69
216,192	281,9
216,404	231,84
216,615	-211,66
216,826	-157,28
217,037	146,51
217,249	272,34
217,46	-303,14
217,671	-100,39
217,882	278,94
218,093	301,92
218,304	-202,56
218,516	-172,29
218,727	197,48
218,938	202,26
219,149	-309,74
219,36	-231,46
219,571	264,38
219,782	234,34
219,993	-281,52
220,205	-36,22
220,416	202,48
220,627	142,86
220,838	-188,22
221,049	-408,49
221,26	312,16
221,471	224,33
221,682	-155
221,893	-210,52
222,104	159,48
222,315	218,87
222,526	41,38
222,737	-103,35
222,948	250,95
223,159	205,9
223,37	-112,45
223,581	-76,5
223,792	200,21
224,003	149,46
224,214	11,11
224,425	-191,41
224,636	206,58
224,847	194,75
225,058	-135,66
225,269	-158,87
225,48	241,39
225,691	263,47
225,902	-193
226,112	-54,65
226,323	276,44
226,534	225,24
226,745	-106,99
226,956	-63,07
227,167	201,12
227,378	200,21
227,589	-32,81
227,799	-330,9
228,01	243,22
228,221	250,95
228,432	-160,69
228,643	5,2
228,853	200,66
229,064	151,51
229,275	-103,12
229,486	-83,32
229,697	225,01
229,907	161,52
230,118	-99,25
230,329	91,67
230,54	270,52
230,75	176,54
230,961	-196,42
231,172	-105,17
231,383	231,38
231,593	242,53
231,804	55,03
232,015	-152,27
232,225	245,49
232,436	167,44
232,647	-223,04
232,857	-213,03
233,068	173,36
233,279	229,33
233,489	-99,48
233,7	-122,46
233,91	180,18
234,121	199,75
234,332	-151,36
234,542	-115,63
234,753	240,26
234,964	239,8
235,174	-87,87
235,385	-170,93
235,595	192,02
235,806	235,02
236,016	-0,95
236,227	-102,21
236,437	258,23
236,648	311,71
236,858	-75,36
237,069	-24,39
237,279	202,03
237,49	243,9
237,7	-85,14
237,911	-164,1
238,121	209,31
238,332	207,49
238,542	-228,05
238,753	-65,57
238,963	265,06
239,174	214,54
239,384	-61,93
239,595	-45,78
239,805	226,83
240,015	165,85
240,226	-86,96
240,436	-139,3
240,647	268,47
240,857	194,97
241,067	-160,92
241,278	-486,54
241,488	268,93
241,698	189,97
241,909	-66,03
242,119	-184,36
242,329	175,18
242,54	270,07
242,75	-86,74
242,96	53,21
243,171	158,57
243,381	289,86
243,591	3,6
243,801	-192,77
244,012	130,8
244,222	177,68
244,432	44,11
244,642	117,38
244,853	230,47
245,063	180,87
245,273	-139,53
245,483	-176,16
245,694	164,48
245,904	204,99
246,114	-148,63
246,324	21,81
246,534	189,06
246,744	256,87
246,955	127,39
247,165	-213,94
247,375	65,72
247,585	243,22
247,795	-114,72
248,005	-205,97
248,215	314,44
248,425	188,15
248,636	-349,1
248,846	-29,16
249,056	277,58
249,266	273,02
249,476	-126,78
249,686	-119,96
249,896	223,19
250,106	166,08
250,316	-76,27
250,526	-278,33
250,736	253,68
250,946	173,58
251,156	-328,4
251,366	-66,71
251,576	211,59
251,786	266,65
251,996	-36,67
252,206	1,33
252,416	235,48
252,626	214,54
252,836	45,02
253,046	-75,59
253,256	278,71
253,466	250,27
253,676	-6,18
253,885	-178,44
254,095	189,06
254,305	203,17
254,515	-59,66
254,725	-63,52
254,935	225,92
255,145	210,45
255,355	-128,83
255,564	-63,3
255,774	237,75
255,984	42,97
256,194	-50,78
256,404	-39,63
256,614	238,89
256,823	246,4
257,033	-52,15
257,243	-139,53
257,453	337,65
257,662	232,52
257,872	-159,1
258,082	-76,5
258,292	189,06
258,501	287,13
258,711	-555,72
258,921	-231
259,131	219,55
259,34	166,08
259,55	-76,5
259,76	90,98
259,969	209,54
260,179	126,48
260,389	-71,49
260,598	-184,58
260,808	232,29
261,018	226,83
261,227	-174,8
261,437	84,61
261,647	286,68
261,856	212,95
262,066	-170,25
262,275	-350,92
262,485	229,11
262,694	188,6
262,904	-109,95
263,114	-191,64
263,323	236,62
263,533	258,23
263,742	-85,14
263,952	-143,17
264,161	220
264,371	240,26
264,58	-52,83
264,79	-69,21
264,999	19,76
265,209	265,97
265,418	-103,8
265,628	-81,96
265,837	293,05
266,047	232,75
266,256	-253,99
266,466	-18,01
266,675	193,84
266,884	247,99
267,094	-160,69
267,303	-205,52
267,513	185,87
267,722	85,29
267,931	-102,21
268,141	-75,59
268,35	237,3
268,559	190,2
268,769	-3,68
268,978	77,33
269,187	237,3
269,397	218,18
269,606	100,31
269,815	-37,81
270,025	218,64
270,234	188,83
270,443	1,1
270,653	-39,18
270,862	341,52
271,071	217,5
271,28	1,78
271,49	-148,17
271,699	148,78
271,908	150,37
272,117	-60,79
272,327	-124,96
272,536	258,46
272,745	188,6
272,954	-67,39
273,163	-218,72
273,372	2,92
273,582	102,82
273,791	-138,62
274	-23,25
274,209	49,34
274,418	118,97
274,627	-173,89
274,836	-34,17
275,046	-55,79
275,255	95,76
275,464	41,15
275,673	95,08
275,882	55,03
276,091	152,19
276,3	-172,07
276,509	-68,3
276,718	94,62
276,927	45,47
277,136	-50,55
277,345	-54,42
277,554	30,68
277,763	95,53
277,972	-114,27
278,181	-89,47
278,39	78,92
278,599	50,71
278,808	4,97
279,017	-123,83
279,226	16,12
279,435	-29,16
279,644	-41
279,853	-60,11
280,062	-59,88
280,271	49,57
280,48	-76,72
280,688	-46,91
280,897	157,66
281,106	55,48
281,315	-42,82
281,524	-16,42
281,733	45,93
281,942	54,12
282,151	-58,06
282,359	-157,5
282,568	87,57
282,777	93,71
282,986	-92,65
283,195	-28,48
283,403	68,91
283,612	70,96
283,821	-14,6
284,03	-26,89
284,238	-79
284,447	94,17
284,656	-52,6
284,865	-9,37
285,073	98,04
285,282	80,74
285,491	-41,22
285,699	35,69
285,908	17,71
286,117	111,92
286,325	-102,66
286,534	-198,69
286,743	100,54
286,951	53,89
287,16	-141,8
287,369	-27,57
287,577	23,86
287,786	121,93
287,995	-20,75
288,203	14,07
288,412	-2,31
288,62	29,54
288,829	2,24
289,037	76,65
289,246	73,46
289,455	197,02
289,663	-100,16
289,872	-178,89
290,08	4,97
290,289	120,34
290,497	-18,24
290,706	-119,73
290,914	102,36
291,123	108,05
291,331	-26,21
291,54	-76,95
291,748	111,92
291,957	15,21
292,165	-86,05
292,373	56,62
292,582	77,1
292,79	17,48
292,999	-42,59
293,207	-89,24
293,415	70,28
293,624	85,75
293,832	-115,63
294,041	-47,37
294,249	64,81
294,457	169,72
294,666	-139,3
294,874	16,35
295,082	74,14
295,291	110,78
295,499	-16,42
295,707	-66,94
295,915	3,38
296,124	85,75
296,332	-54,2
296,54	-38,95
296,749	-17,79
296,957	69,37
297,165	-18,92
297,373	-15,06
297,581	19,53
297,79	49,34
297,998	18,39
298,206	6,79
298,414	20,9
298,622	129,89
298,831	-182,53
299,039	-41,91
299,247	-12,33
299,455	99,4
299,663	-195,28
299,871	-48,05
300,08	67,32
300,288	123,75
300,496	-89,69
300,704	-24,84
300,912	194,52
301,12	139
301,328	-105,62
301,536	-34,4
301,744	125,57
301,952	111,92
302,16	5,2
302,368	3,83
302,576	-4,82
302,784	9,29
302,992	125,12
303,2	-11,87
303,408	67,09
303,616	94,85
303,824	-69,21
304,032	-158,87
304,24	-67,17
304,448	-3,22
304,656	-9,37
304,864	-164,33
305,072	38,42
305,28	20,21
305,488	-70,12
305,696	-67,39
305,904	40,01
306,111	61,4
306,319	-43,27
306,527	-18,47
306,735	-35,54
306,943	32,73
307,151	-151,36
307,359	35,01
307,566	105,09
307,774	11,79
307,982	-127,47
308,19	19,3
308,398	61,17
308,605	64,59
308,813	16,57
309,021	-19,83
309,229	10,2
309,436	90,53
309,644	-175,94
309,852	-123,37
310,06	37,96
310,267	39,1
310,475	-101,07
310,683	-5,73
310,89	87,8
311,098	55,26
311,306	-31,21
311,513	-200,06
311,721	125,34
311,929	16,35
312,136	5,42
312,344	-15,51
312,552	-47,6
312,759	174,04
312,967	-104,26
313,174	-128,6
313,382	42,97
313,589	19,99
313,797	-30,76
314,005	-151,82
314,212	72,1
314,42	70,73
314,627	-71,26
314,835	58,22
315,042	46,38
315,25	59,35
315,457	-69,44
315,665	158,79
315,872	22,94
316,08	242,53
316,287	-0,72
316,495	47,29
316,702	6,11
316,909	182,91
317,117	-118,14
317,324	-59,88
317,532	-120,19
317,739	122,39
317,946	6,33
318,154	-0,49
318,361	84,16
318,569	-145,9
318,776	61,17
318,983	101,68
319,191	61,63
319,398	4,06
319,605	-90,38
319,813	-132,93
320,02	79,38
320,227	39,1
320,434	-86,74
320,642	-73,76
320,849	113,51
321,056	21,81
321,264	-3,68
321,471	-57,84
321,678	7,93
321,885	146,73
322,092	-146,13
322,3	38,87
322,507	123,52
322,714	-5,04
322,921	8,61
323,128	-23,48
323,336	74,6
323,543	105,09
323,75	-94,7
323,957	-152,04
324,164	26,81
324,371	136,27
324,578	138,77
324,786	-54,42
324,993	85,52
325,2	-5,73
325,407	159,48
325,614	51,84
325,821	22,49
326,028	68,46
326,235	-56,24
326,442	-51,01
326,649	56,62
326,856	73,69
327,063	73,92
327,27	-73,76
327,477	103,73
327,684	169,26
327,891	-20,52
328,098	-66,03
328,305	83,7
328,512	169,26
328,719	-48,28
328,926	6,11
329,133	288,04
329,34	142,41
329,546	263,69
329,753	402,96
329,96	634,15
330,167	441,41
330,374	348,12
330,581	245,72
330,788	388,85
330,995	184,51
331,201	42,06
331,408	17,03
331,615	159,93
331,822	61,86
332,029	-34,63
332,235	-7,32
332,442	4,97
332,649	91,44
332,856	34,09
333,062	-32,35
333,269	104,41
333,476	161,3
333,683	-9,37
333,889	-137,25
334,096	2,92
334,303	109,19
334,509	-41,22
334,716	-36,67
334,923	113,06
335,129	15,21
335,336	43,88
335,543	-115,86
335,749	79,83
335,956	63,68
336,163	115,33
336,369	-75,81
336,576	146,73
336,782	33,18
336,989	42,74
337,196	-62,61
337,402	78,24
337,609	194,75
337,815	-10,05
338,022	-80,36
338,228	-14,37
338,435	152,19
338,641	-124,28
338,848	-104,48
339,054	74,83
339,261	163,34
339,467	66,18
339,674	-30,3
339,88	28,63
340,087	84,84
340,293	18,17
340,5	-0,95
340,706	-43,5
340,912	121,25
341,119	26,81
341,325	-76,95
341,532	15,66
341,738	153,79
341,944	-55,33
342,151	-62,39
342,357	45,93
342,563	-8,46
342,77	-67,85
342,976	111,24
343,182	141,73
343,389	70,73
343,595	-29,16
343,801	60,72
344,007	-1,18
344,214	206,35
344,42	-85,37
344,626	51,84
344,832	98,26
345,039	168,35
345,245	-87,65
345,451	-13,24
345,657	4,29
345,864	89,39
346,07	-94,24
346,276	-18,47
346,482	57,53
346,688	-32,81
346,894	-12,78
347,1	-0,27
347,307	93,94
347,513	2,01
347,719	-63,3
347,925	-23,48
348,131	137,86
348,337	121,02
348,543	7,47
348,749	6,79
348,955	114,19
349,161	43,65
349,367	-123,37
349,573	-124,05
349,779	52,3
349,985	111,92
350,191	-20,52
350,397	-94,24
350,603	13,16
350,809	101,91
351,015	-93,11
351,221	-1,18
351,427	-40,09
351,633	-83,09
351,839	-141,35
352,045	-84,69
352,251	150,83
352,457	80,52
352,663	-98,57
352,869	-35,76
353,075	7,24
353,28	117,38
353,486	-10,28
353,692	-60,79
353,898	105,09
354,104	22,72
354,31	-150,68
354,515	23,86
354,721	78,24
354,927	74,14
355,133	-63,07
355,339	13,62
355,544	184,51
355,75	-52,37
355,956	-9,82
356,162	-125,87
356,367	257,32
356,573	-125,87
356,779	-31,67
356,984	-80,36
357,19	-20,52
357,396	71,87
357,602	-186,63
357,807	-74,22
358,013	79,61
358,218	135,36
358,424	19,3
358,63	6,11
358,835	78,01
359,041	116,47
359,247	-18,01
359,452	11,57
359,658	168,58
359,863	71,19
360,069	-67,17
360,274	-31,9
360,48	182,46
360,685	170,63
360,891	-104,71
361,097	10,2
361,302	141,5
361,508	66,18
361,713	-32,12
361,918	-218,03
362,124	66,63
362,329	-2,09
362,535	-40,31
362,74	-24,39
362,946	132,85
363,151	93,03
363,357	-21,2
363,562	108,28
363,767	117,38
363,973	1,33
364,178	16,35
364,383	-55,11
364,589	37,96
364,794	136,95
365	-66,26
365,205	-10,73
365,41	101,91
365,615	80,52
365,821	55,94
366,026	-131,79
366,231	30
366,437	-33,49
366,642	65,5
366,847	-79,91
367,052	94,62
367,258	34,32
367,463	12,02
367,668	23,86
367,873	-4,82
368,078	11,57
368,284	197,93
368,489	-19,15
368,694	92,12
368,899	133,31
369,104	-218,49
369,309	-129,74
369,515	-35,31
369,72	96,22
369,925	90,76
370,13	-90,15
370,335	102,13
370,54	90,07
370,745	-154,09
370,95	-82,41
371,155	126,25
371,36	-3,22
371,565	-108,81
371,77	-103,12
371,975	107,14
372,18	119,2
372,385	-118,14
372,59	-56,93
372,795	86,66
373	111,24
373,205	-163,65
373,41	19,76
373,615	76,65
373,82	145,82
374,025	-106,99
374,23	94,85
374,435	173,13
374,64	83,25
374,845	-115,63
375,05	-8,46
375,254	104,41
375,459	55,48
375,664	29,09
375,869	-58,75
376,074	74,83
376,279	62,77
376,483	-124,51
376,688	15,66
376,893	142,86
377,098	121,93
377,303	-138,16
377,507	-68,3
377,712	182,46
377,917	20,21
378,122	-71,72
378,326	-2,77
378,531	79,38
378,736	125,12
378,94	60,72
379,145	-22,34
379,35	25,9
379,554	99,63
379,759	8,84
379,964	-84,69
380,168	154,01
380,373	98,95
380,578	-145,67
380,782	-401,44
380,987	-35,76
381,191	199,75
381,396	-99,02
381,601	3,38
381,805	32,27
382,01	76,65
382,214	-48,05
382,419	-13,01
382,623	86,43
382,828	54,12
383,032	74,83
383,237	75,96
383,441	70,5
383,646	17,48
383,85	72,32
384,055	-171,61
384,259	161,98
384,464	141,27
384,668	16,57
384,872	-58,29
385,077	27,04
385,281	87,8
385,486	41,38
385,69	-66,71
385,894	81,65
386,099	-4,36
386,303	-99,25
386,507	-136,34
386,712	-64,21
386,916	95,31
387,12	63,68
387,325	-88,1
387,529	2,69
387,733	23,4
387,937	-29,16
388,142	8,61
388,346	83,47
388,55	86,89
388,754	-21,66
388,959	45,47
389,163	0,19
389,367	146,51
389,571	-6,64
389,775	-108,81
389,98	58,44
390,184	-27,57
390,388	-51,24
390,592	-96,06
390,796	50,93
391	40,47
391,204	-60,11
391,409	17,26
391,613	102,13
391,817	155,61
392,021	-86,74
392,225	46,16
392,429	48,2
392,633	13,84
392,837	-49,87
393,041	4,51
393,245	-45,32
393,449	146,73
393,653	1,55
393,857	-44,18
394,061	-71,49
394,265	125,57
394,469	-83,32
394,673	-186,63
394,877	28,86
395,081	85,52
395,285	-194,14
395,489	-53,06
395,693	75,51
395,896	78,01
396,1	-170,47
396,304	-6,64
396,508	140,36
396,712	85,98
396,916	29,77
397,12	-33,72
397,323	134,67
397,527	-16,19
397,731	-192,77
397,935	-69,9
398,139	40,01
398,342	57,99
398,546	-14,37
398,75	18,85
398,954	10,66
399,157	-37,13
399,361	-133,61
399,565	4,97
399,769	35,01
399,972	43,42
400,176	-9,6
400,38	-63,07
400,583	124,89
400,787	2,92
400,991	-114,27
401,194	-135,66
401,398	60,72
401,601	12,25
401,805	-80,82
402,009	10,2
402,212	35,92
402,416	37,74
402,619	57,76
402,823	-224,4
403,026	99,63
403,23	50,25
403,433	-145,9
403,637	-39,86
403,841	82,11
404,044	49,34
404,247	4,29
404,451	-171,38
404,654	98,04
404,858	74,14
405,061	-63,07
405,265	-40,77
405,468	27,5
405,672	54,57
405,875	-167,97
406,078	-14,37
406,282	65,04
406,485	106,46
406,689	-151,82
406,892	-210,52
407,095	82,11
407,299	141,95
407,502	-119,28
407,705	50,48
407,909	68,68
408,112	72,32
408,315	-125,65
408,518	-180,49
408,722	79,83
408,925	59,81
409,128	-160,46
409,331	-97,43
409,535	126,48
409,738	178,14
409,941	-233,28
410,144	-41,22
410,347	119,65
410,551	68,46
410,754	15,21
410,957	-64,21
411,16	112,37
411,363	72,32
411,566	-104,26
411,769	-12,55
411,973	79,38
412,176	95,53
412,379	-268,09
412,582	-116,09
412,785	-43,05
412,988	78,47
413,191	-97,43
413,394	-73,99
413,597	147,64
413,8	-21,43
414,003	-155,46
414,206	8,61
414,409	26,13
414,612	74,83
414,815	-57,61
415,018	0,19
415,221	121,02
415,424	-25,52
415,627	-61,02
415,83	36,83
416,033	49,34
416,235	230,24
416,438	-131,79
416,641	-230,55
416,844	129,21
417,047	187,24
417,25	23,17
417,453	-22,11
417,655	30,23
417,858	29,09
418,061	-92,65
418,264	-25,75
418,467	144,91
418,669	124,66
418,872	-95,84
419,075	122,61
419,278	195,88
419,48	73,01
419,683	55,26
419,886	158,79
420,089	143,09
420,291	150,83
420,494	46,61
420,697	-25,52
420,899	55,94
421,102	138,77
421,305	-86,74
421,507	-166,61
421,71	119,88
421,912	114,19
422,115	-9,82
422,318	-152,73
422,52	58,44
422,723	98,04
422,925	-152,27
423,128	-239,65
423,33	30,68
423,533	181,32
423,735	-78,77
423,938	58,22
424,14	93,26
424,343	174,27
424,545	-194,59
424,748	-192,09
424,95	-2,77
425,153	69,37
425,355	-23,25
425,558	-181,17
425,76	91,44
425,962	4,29
426,165	-6,18
426,367	-13,92
426,57	192,93
426,772	129,89
426,974	-137,48
427,177	-23,25
427,379	77,78
427,581	181,09
427,784	24,08
427,986	-27,12
428,188	166,76
428,39	134,45
428,593	-58,97
428,795	-67,39
428,997	111,69
429,2	93,49
429,402	-115,18
429,604	32,27
429,806	71,19
430,008	-80,59
430,211	-97,2
430,413	21,58
430,615	55,71
430,817	116,47
431,019	-39,86
431,221	-122,69
431,423	34,55
431,626	8,38
431,828	3,15
432,03	92,35
432,232	179,27
432,434	95,53
432,636	20,9
432,838	52,3
433,04	-29,85
433,242	62,54
433,444	-50,55
433,646	-240,56
433,848	89,85
434,05	48,43
434,252	51,16
434,454	-111,77
434,656	80,29
434,858	58,9
435,06	-76,72
435,262	-202,79
435,464	25,68
435,666	-58,29
435,868	-303,14
436,07	-184,58
436,271	52,53
436,473	109,41
436,675	-225,09
436,877	-231,69
437,079	108,5
437,281	73,92
437,482	-77,41
437,684	11,79
437,886	49,34
438,088	122,61
438,29	-179,58
438,491	-49,19
438,693	153,79
438,895	111,46
439,097	-181,85
439,298	-82,41
439,5	-9,37
439,702	84,84
439,903	-102,44
440,105	-32,81
440,307	46,61
440,508	-10,51
440,71	-66,26
440,912	-205,29
441,113	140,13
441,315	57,53
441,517	-62,61
441,718	-183,67
441,92	3,83
442,121	4,06
442,323	-60,79
442,524	78,7
442,726	-48,51
442,928	106,23
443,129	-45,32
443,331	-72,4
443,532	108,96
443,734	-27,8
443,935	-146,81
444,136	-7,77
444,338	86,66
444,539	42,97
444,741	-105,17
444,942	-166,83
445,144	-12,78
445,345	-87,65
445,546	28,41
445,748	-100,16
445,949	58,22
446,151	147,42
446,352	37,28
446,553	-299,72
446,755	115,79
446,956	120,79
447,157	-83,32
447,359	-153,86
447,56	48,2
447,761	219,78
447,962	-210,98
448,164	-111,31
448,365	45,7
448,566	150,6
448,767	-3
448,969	-191,41
449,17	71,19
449,371	52,3
449,572	-132,25
449,773	-43,5
449,974	78,92
450,176	41,83
450,377	-56,7
450,578	-167,97
450,779	38,87
450,98	150,37
451,181	-37,36
451,382	-129,06
451,583	-20,97
451,784	118,29
451,986	34,09
452,187	-213,71
452,388	77,78
452,589	22,26
452,79	-109,26
452,991	-3,68
453,192	-25,3
453,393	7,93
453,594	-147,26
453,795	73,01
453,995	98,95
454,196	99,17
454,397	23,4
454,598	77,78
454,799	135,81
455	84,38
455,201	38,87
455,402	-234,64
455,603	177,23
455,804	123,07
456,004	-4,59
456,205	-29,16
456,406	37,28
456,607	49,8
456,808	-251,94
457,008	-3
457,209	111,46
457,41	63,45
457,611	-125,42
457,811	-333,17
458,012	46,38
458,213	74,6
458,414	-120,19
458,614	-56,02
458,815	16,57
459,016	145,37
459,216	-84,46
459,417	-72,17
459,618	-30,99
459,818	75,74
460,019	28,41
460,22	-0,27
460,42	4,97
460,621	3,6
460,821	-39,63
461,022	-156,82
461,223	86,2
461,423	135,36
461,624	-133,16
461,824	-12,55
462,025	181,09
462,225	112,37
462,426	-219,17
462,626	37,96
462,827	-16,19
463,027	-43,96
463,228	-156,37
463,428	-176,62
463,628	116,7
463,829	-46,46
464,029	59,13
464,23	103,5
464,43	24,08
464,63	56,17
464,831	73,69
465,031	-19,38
465,231	83,93
465,432	64,59
465,632	-352,29
465,832	128,76
466,033	183,82
466,233	83,7
466,433	-152,5
466,634	-51,24
466,834	22,72
467,034	160,61
467,234	-124,28
467,435	-25,3
467,635	90,53
467,835	46,38
468,035	-83,55
468,235	40,24
468,436	-45,32
468,636	90,53
468,836	140,82
469,036	-137,48
469,236	62,99
469,436	122,84
469,636	-235,55
469,836	67,32
470,037	74,14
470,237	161,07
470,437	-203,7
470,637	-121,78
470,837	-52,15
471,037	28,63
471,237	-48,05
471,437	-72,17
471,637	70,73
471,837	75,28
472,037	17,71
472,237	-113,13
472,437	43,88
472,637	73,92
472,837	-133,84
473,036	-66,71
473,236	202,71
473,436	69,37
473,636	-52,37
473,836	77,33
474,036	92,8
474,236	87,11
474,436	75,05
474,635	-167,74
474,835	82,34
475,035	112,15
475,235	-7,55
475,435	-66,48
475,634	47,98
475,834	6,11
476,034	-176,16
476,234	60,26
476,433	105,77
476,633	-23,93
476,833	-55,11
477,033	-2,31
477,232	-65,12
477,432	53,89
477,632	-206,43
477,831	-99,93
478,031	88,71
478,231	88,71
478,43	-34,85
478,63	-48,28
478,829	258,46
479,029	-3
479,229	-48,51
479,428	109,87
479,628	20,44
479,827	18,17
480,027	40,24
480,226	-309,51
480,426	22,49
480,625	216,59
480,825	-28,03
481,024	-34,63
481,224	-115,86
481,423	111,46
481,623	-237,15
481,822	18,85
482,021	86,66
482,221	30,91
482,42	-152,5
482,62	-1,86
482,819	-17,79
483,018	74,83
483,218	62,54
483,417	-97,43
483,616	66,86
483,816	66,41
484,015	-154,55
484,214	-2,09
484,414	61,4
484,613	201,35
484,812	-80,59
485,011	68,91
485,211	-70,81
485,41	-51,69
485,609	-10,73
485,808	-201,65
486,008	78,01
486,207	62,99
486,406	-46,23
486,605	-63,3
486,804	27,5
487,003	35,23
487,203	-69,21
487,402	115,56
487,601	33,41
487,8	196,34
487,999	-10,73
488,198	-120,41
488,397	-27,12
488,596	201,8
488,795	-31,44
488,994	-86,05
489,193	76,42
489,392	19,99
489,591	-30,99
489,79	-89,24
489,989	46,38
490,188	143,77
490,387	-157,05
490,586	-146,13
490,785	83,02
490,984	15,66
491,183	-112,45
491,382	-106,99
491,581	155,84
491,779	155,15
491,978	19,99
492,177	-50,1
492,376	171,76
492,575	207,26
492,774	57,76
492,972	150,83
493,171	78,47
493,37	132,85
493,569	-124,74
493,768	-148,17
493,966	88,93
494,165	160,16
494,364	-218,03
494,563	-213,48
494,761	83,47
494,96	30,45
495,159	-124,74
495,357	23,63
495,556	11,79
495,755	-49,64
495,953	-49,87
496,152	42,74
496,35	258,46
496,549	372,24
496,748	175,63
496,946	295,1
497,145	498,3
497,343	637,34
497,542	483,06
497,74	166,99
497,939	331,05
498,137	368,14
498,336	39,56
498,534	-27,57
498,733	115,79
498,931	200,89
499,13	161,07
499,328	36,6
499,527	176,54
499,725	92,8
499,924	25,9
500,122	155,15
500,32	126,94
500,519	131,49
500,717	-80,59
500,915	39,33
501,114	-12,33
501,312	110,32
501,51	67,77
501,709	-41,91
501,907	1,55
502,105	155,84
502,304	-89,24
502,502	-65,12
502,7	15,89
502,898	160,39
503,097	-26,89
503,295	-94,47
503,493	172,45
503,691	-10,28
503,889	85,98
504,088	89,62
504,286	142,41
504,484	122,61
504,682	-54,42
504,88	-10,05
505,078	23,4
505,276	71,41
505,474	-177,76
505,672	20,67
505,871	98,26
506,069	254,59
506,267	-43,5
506,465	-123,14
506,663	192,93
506,861	44,33
507,059	-109,95
507,257	-125,87
507,455	99,4
507,653	70,5
507,851	-61,25
508,049	57,08
508,246	-24,16
508,444	88,93
508,642	-39,63
508,84	-119,73
509,038	74,14
509,236	180,18
509,434	0,64
509,632	-146,13
509,829	119,2
510,027	131,03
510,225	-144,08
510,423	59,58
510,621	98,95
510,818	107,37
511,016	-75,59
511,214	-68,76
511,412	47,07
511,609	151,28
511,807	-77,18
512,005	27,72
512,203	49,57
512,4	38,65
512,598	-64,21
512,796	17,26
512,993	31,59
513,191	186,55
513,389	-1,63
513,586	68,23
513,784	253
513,981	313,07
514,179	-18,24
514,377	107,82
514,574	141,5
514,772	343,57
514,969	-72,4
515,167	147,42
515,364	59,81
515,562	218,64
515,759	-247,16
515,957	50,93
516,154	182,23
516,352	50,48
516,549	-113,59
516,746	20,44
516,944	79,38
517,141	107,82
517,339	76,42
517,536	-41,45
517,733	103,95
517,931	136,27
518,128	-16,65
518,325	46,84
518,523	128,07
518,72	84,84
518,917	-62,16
519,115	-91,29
519,312	35,23
519,509	83,25
519,707	53,44
519,904	22,94
520,101	46,38
520,298	23,63
520,495	-121,78
520,693	145,6
520,89	230,47
521,087	86,66
521,284	-186,18
521,481	112,83
521,678	95,99
521,876	140,36
522,073	-132,02
522,27	-23,25
522,467	45,24
522,664	197,02
522,861	-59,2
523,058	-132,7
523,255	115,56
523,452	152,42
523,649	37,05
523,846	19,08
524,043	109,87
524,24	155,38
524,437	-112,68
524,634	13,62
524,831	134,45
525,028	111,01
525,225	101,22
525,422	-116,54
525,619	90,53
525,816	42,29
526,013	-280,38
526,209	-107,21
526,406	79,15
526,603	75,28
526,8	109,87
526,997	-101,3
527,194	103,27
527,39	114,19
527,587	91,21
527,784	-85,37
527,981	54,35
528,177	106,46
528,374	-67,17
528,571	-183,44
528,768	197,48
528,964	181,55
529,161	33,87
529,358	-122,69
529,554	181,55
529,751	139,45
529,948	169,94
530,144	-10,96
530,341	134,45
530,537	142,41
530,734	-55,33
530,931	-87,42
531,127	67,55
531,324	133,31
531,52	-62,61
531,717	66,86
531,913	15,21
532,11	153,33
532,306	-72,17
532,503	125,8
532,699	167,21
532,896	198,16
533,092	-81,27
533,289	119,43
533,485	302,38
533,682	81,65
533,878	-134,98
534,074	4,51
534,271	92,12
534,467	196,11
534,664	-11,87
534,86	4,29
535,056	132,4
535,253	258,69
535,449	-90,15
535,645	0,19
535,841	78,47
536,038	132,62
536,234	47,07
536,43	-131,56
536,626	208,85
536,823	149,46
537,019	47,98
537,215	-31,44
537,411	255,28
537,607	181,55
537,804	86,43
538	32,5
538,196	140,13
538,392	43,2
538,588	-110,4
538,784	-28,71
538,98	132,85
539,176	151,28
539,373	-66,26
539,569	-86,05
539,765	128,3
539,961	0,19
540,157	-101,75
540,353	-31,9
540,549	160,84
540,745	121,93
540,941	-15,06
541,137	-21,66
541,333	-1,18
541,528	3,15
541,724	-139,75
541,92	-145,22
542,116	95,99
542,312	-144,99
542,508	-104,94
542,704	-192,32
542,9	-22,34
543,096	32,96
543,291	-265,59
543,487	-175,71
543,683	28,18
543,879	149,24
544,075	-147,72
544,27	-140,67
544,466	-65,12
544,662	-79,68
544,858	-171,38
545,053	-277,42
545,249	-63,52
545,445	149,92
545,64	-79,45
545,836	-70,35
546,032	79,83
546,227	113,06
546,423	-239,2
546,619	-109,49
546,814	103,04
547,01	91,21
547,205	-41,91
547,401	-26,43
547,597	108,73
547,792	179,05
547,988	-242,61
548,183	17,03
548,379	61,17
548,574	71,41
548,77	-32,35
548,965	-51,46
549,161	151,06
549,356	187,92
549,552	-96,98
549,747	-107,67
549,942	76,42
550,138	88,25
550,333	-30,53
550,529	-10,28
550,724	149,46
550,919	148,1
551,115	-30,99
551,31	-199,6
551,505	108,73
551,701	156,29
551,896	-140,89
552,091	-104,26
552,287	220,46
552,482	186,33
552,677	32,73
552,872	88,48
553,067	199,53
553,263	78,92
553,458	100,54
553,653	-104,48
553,848	74,14
554,043	64,81
554,239	27,72
554,434	26,59
554,629	312,16
554,824	243,22
555,019	68,23
555,214	78,47
555,409	97,35
555,604	156,97
555,799	48,66
555,994	39,56
556,189	133,54
556,384	269,84
556,579	-11,19
556,774	-74,45
556,969	288,04
557,164	192,93
557,359	-45,55
557,554	17,03
557,749	268,7
557,944	252,77
558,139	-7,32
558,334	102,36
558,529	288,73
558,724	288,95
558,918	52,07
559,113	180,87
559,308	349,94
559,503	312,62
559,698	224,33
559,893	184,28
560,087	288,95
560,282	500,12
560,477	5,88
560,672	196,57
560,866	344,48
561,061	457,8
561,256	161,07
561,45	190,65
561,645	329
561,84	476,91
562,034	235,71
562,229	275,98
562,424	506,27
562,618	443,23
562,813	306,25
563,008	464,62
563,202	458,71
563,397	615,72
563,591	329,91
563,786	355,17
563,98	629,6
564,175	580,67
564,369	363,82
564,564	242,31
564,758	648,71
564,953	561,79
565,147	433,68
565,342	550,41
565,536	707,19
565,731	731,77
565,925	519,46
566,119	819,38
566,314	1390,31
566,508	2143,96
566,703	2564,47
566,897	3627,6
567,091	4725,99
567,286	5640,52
567,48	5920,18
567,674	5805,5
567,868	5961,14
568,063	5196,34
568,257	4096,58
568,451	3385,48
568,646	2865,07
568,84	2418,61
569,034	2011,29
569,228	1587,82
569,422	1673,38
569,616	1464,49
569,811	1246,72
570,005	875,13
570,199	1152,51
570,393	1019,4
570,587	712,88
570,781	792,98
570,975	1028,73
571,169	826,89
571,364	402,27
571,558	461,44
571,752	687,17
571,946	820,97
572,14	489,43
572,334	480,1
572,528	741,33
572,722	802,08
572,916	562,24
573,109	437,09
573,303	850,1
573,497	848,28
573,691	448,47
573,885	534,71
574,079	771,36
574,273	785,93
574,467	563,15
574,661	609,8
574,854	756,57
575,048	799,81
575,242	494,21
575,436	578,17
575,63	873,53
575,823	694,68
576,017	590,69
576,211	707,42
576,405	830,98
576,598	868,07
576,792	647,58
576,986	544,04
577,18	888,78
577,373	813,92
577,567	672,38
577,761	702,87
577,954	850,55
578,148	810,5
578,341	738,37
578,535	623,23
578,729	996,87
578,922	917
579,116	753,61
579,309	765,22
579,503	875,81
579,696	950,45
579,89	581,59
580,083	759,99
580,277	1012,34
580,47	1172,77
580,664	880,82
580,857	1180,96
581,051	1430,13
581,244	1600,11
581,437	1559,15
581,631	1596,92
581,824	1857,01
582,018	1819,24
582,211	1883,87
582,404	1837,45
582,598	1988,08
582,791	1867,71
582,984	1667,24
583,178	1501,81
583,371	1813,1
583,564	1906,39
583,757	1671,79
583,951	1658,13
584,144	2029,27
584,337	1988,77
584,53	1884,78
584,723	2121,2
584,917	2406,33
585,11	2547,18
585,303	2441,14
585,496	2573,35
585,689	3184,33
585,882	3859,47
586,075	5080,52
586,268	9695,5
586,462	23449,43
586,655	62544,7
586,848	62630,71
587,041	64027,66
587,234	64160,78
587,427	64003,08
587,62	64076,81
587,813	64060,42
588,006	63982,6
588,199	64148,49
588,392	63876,11
588,585	64005,13
588,777	64271,37
588,97	64259,08
589,163	63616,02
589,356	63740,94
589,549	64171,01
589,742	64297,99
589,935	64207,88
590,128	64134,15
590,32	64195,59
590,513	64209,93
590,706	64019,47
590,899	64275,46
591,092	64193,54
591,284	64293,89
591,477	63988,75
591,67	63949,83
591,863	64175,11
592,055	64357,38
592,248	63728,65
592,441	63921,16
592,633	64250,89
592,826	64236,55
593,019	64068,62
593,211	63847,44
593,404	64316,42
593,596	64277,51
593,789	64078,86
593,982	63986,7
594,174	64373,76
594,367	64328,71
594,559	64011,27
594,752	64347,14
594,944	64330,76
595,137	64275,46
595,329	64062,47
595,522	63990,79
595,714	64343,04
595,907	64209,93
596,099	64111,62
596,292	64175,11
596,484	64355,33
596,676	64326,66
596,869	63874,06
597,061	63718,41
597,253	64336,9
597,446	64316,42
597,638	64115,72
597,83	64076,81
598,023	64338,95
598,215	64486,4
598,407	64103,43
598,6	64322,56
598,792	64228,36
598,984	64257,03
599,176	64103,43
599,369	63892,49
599,561	64257,03
599,753	64427,01
599,945	63835,15
600,137	64224,26
600,329	64224,26
600,522	64396,29
600,714	64259,08
600,906	64306,18
601,098	64226,31
601,29	64443,39
601,482	64111,62
601,674	64078,86
601,866	64281,61
602,058	64347,14
602,25	63970,31
602,442	63839,24
602,634	64390,15
602,826	64336,9
603,018	64101,38
603,21	63939,59
603,402	64297,99
603,594	64388,1
603,786	64046,09
603,978	63816,72
604,17	64455,68
604,362	64312,32
604,554	63906,83
604,745	63945,74
604,937	64257,03
605,129	64287,75
605,321	64173,06
605,513	64160,78
605,704	64369,67
605,896	64228,36
606,088	64039,94
606,28	64119,82
606,471	64066,57
606,663	64314,37
606,855	64343,04
607,047	64007,18
607,238	64310,28
607,43	64203,78
607,622	63734,8
607,813	64003,08
608,005	64265,22
608,197	64013,32
608,388	63929,35
608,58	64007,18
608,771	63929,35
608,963	63988,75
609,154	63712,27
609,346	63515,66
609,537	63519,76
609,729	63470,61
609,921	62751,77
610,112	62860,31
610,303	63142,93
610,495	63288,34
610,686	62962,71
610,878	63478,8
611,069	63732,75
611,261	63616,02
611,452	63671,31
611,643	43362,74
611,835	23963,7
612,026	454,38
612,217	174,49
612,409	275,53
612,6	491,02
612,791	470,99
612,983	141,04
613,174	96,67
613,365	573,62
613,557	598,42
613,748	495,8
613,939	606,84
614,13	1073,33
614,321	1368,69
614,513	1036,46
614,704	1134,08
614,895	1475,86
615,086	1400,55
615,277	1039,88
615,468	910,17
615,659	927,69
615,851	921,78
616,042	488,52
616,233	364,5
616,424	543,81
616,615	479,64
616,806	368,14
616,997	415,7
617,188	503,08
617,379	450,52
617,57	69,37
617,761	80,97
617,952	326,27
618,143	349,03
618,334	162,21
618,524	139,91
618,715	283,95
618,906	422,98
619,097	113,74
619,288	354,26
619,479	210,9
619,67	336,74
619,86	253,68
620,051	83,47
620,242	225,47
620,433	288,5
620,624	86,2
620,814	47,52
621,005	286,22
621,196	214,77
621,386	40,47
621,577	63,68
621,768	435,5
621,958	283,49
622,149	182,69
622,34	73,92
622,53	359,95
622,721	255,5
622,912	-20,06
623,102	86,2
623,293	268,93
623,483	331,73
623,674	12,93
623,864	105,32
624,055	251,18
624,245	282,35
624,436	257,32
624,626	175,18
624,817	355,4
625,007	367,91
625,198	174,95
625,388	95,76
625,579	352,9
625,769	394,76
625,959	-6,86
626,15	15,89
626,34	216,59
626,531	252,09
626,721	45,93
626,911	177,68
627,101	398,18
627,292	356,31
627,482	100,54
627,672	120,79
627,863	347,43
628,053	259,6
628,243	-8
628,433	242,99
628,623	345,16
628,814	400,91
629,004	81,2
629,194	145,6
629,384	199,07
629,574	328,32
629,764	-123,6
629,955	-20,29
630,145	126,71
630,335	268,25
630,525	226,38
630,715	-4,13
630,905	257,55
631,095	243,9
631,285	70,73
631,475	205,9
631,665	247,54
631,855	360,63
632,045	157,88
632,235	173,36
632,425	261,19
632,615	431,63
632,805	12,02
632,994	111,92
633,184	161,3
633,374	350,62
633,564	35,23
633,754	58,9
633,944	273,02
634,133	232,75
634,323	73,23
634,513	29,77
634,703	396,81
634,893	302,83
635,082	36,37
635,272	128,98
635,462	320,36
635,651	335,15
635,841	-23,48
636,031	73,01
636,221	257,32
636,41	328,55
636,6	196,57
636,789	22,03
636,979	314,44
637,169	223,65
637,358	190,88
637,548	42,06
637,737	199,98
637,927	271,2
638,116	161,52
638,306	88,02
638,495	239,12
638,685	387,71
638,874	156,06
639,064	-25,07
639,253	253,23
639,443	289,41
639,632	134,67
639,822	187,46
640,011	205,9
640,2	283,26
640,39	-38,72
640,579	40,24
640,768	327,86
640,958	270,07
641,147	226,15
641,336	98,72
641,526	161,98
641,715	205,67
641,904	-40,09
642,093	131,94
642,283	162,89
642,472	182,69
642,661	174,95
642,85	-51,24
643,039	305,34
643,228	262,56
643,418	-2,09
643,607	19,53
643,796	78,01
643,985	199,98
644,174	16,35
644,363	-66,71
644,552	207,49
644,741	213,86
644,93	106,23
645,119	-58,52
645,308	253
645,497	179,73
645,686	-118,14
645,875	122,84
646,064	189,29
646,253	244,35
646,442	-111,08
646,631	126,25
646,82	165,39
647,009	160,39
647,198	41,38
647,387	164,03
647,575	250,95
647,764	364,73
647,953	14,07
648,142	12,25
648,331	367,46
648,519	268,25
648,708	-30,3
648,897	78,7
649,086	215,91
649,274	271,66
649,463	107,59
649,652	-197,78
649,84	145,37
650,029	225,69
650,218	9,97
650,406	-6,86
650,595	251,63
650,784	265,97
650,972	-9,6
651,161	24,31
651,349	242,99
651,538	66,86
651,726	6,56
651,915	-42,82
652,104	172,45
652,292	265,52
652,481	-67,39
652,669	-175,03
652,857	279,62
653,046	212,95
653,234	9,52
653,423	-193,68
653,611	167,67
653,8	285,54
653,988	-2,09
654,176	107,14
654,365	257,55
654,553	122,16
654,741	-62,84
654,93	65,5
655,118	200,44
655,306	189,97
655,494	97,58
655,683	50,25
655,871	275,53
656,059	170,17
656,247	139,91
656,436	-29,85
656,624	67,77
656,812	170,17
657	123,07
657,188	-120,19
657,376	251,63
657,564	41,6
657,753	29,54
657,941	120,79
658,129	140,82
658,317	201,8
658,505	89,16
658,693	118,97
658,881	292,37
659,069	129,21
659,257	56,17
659,445	-23,25
659,633	74,14
659,821	232,98
660,009	-18,01
660,197	75,74
660,384	117,15
660,572	281,22
660,76	-133,61
660,948	7,02
661,136	175,86
661,324	216,36
661,512	-62,16
661,699	51,84
661,887	192,93
662,075	137,18
662,263	-15,74
662,451	44,33
662,638	237,98
662,826	232,07
663,014	-190,95
663,201	-48,96
663,389	251,41
663,577	164,94
663,764	-104,26
663,952	45,47
664,14	85,07
664,327	164,25
664,515	-25,75
664,702	-91,74
664,89	273,93
665,078	221,37
665,265	55,26
665,453	-18,24
665,64	255,96
665,828	128,3
666,015	34,32
666,203	39,78
666,39	190,65
666,578	162,66
666,765	2,69
666,952	-288,8
667,14	65,95
667,327	161,52
667,515	-36,45
667,702	-23,25
667,889	200,89
668,077	213,86
668,264	-185,95
668,451	-96,98
668,638	179,73
668,826	250,72
669,013	-66,48
669,2	-147,72
669,388	266,88
669,575	114,88
669,762	118,74
669,949	-82,18
670,136	-2980,29
670,323	177,23
670,511	-69,44
670,698	-11,64
670,885	151,97
671,072	188,83
671,259	-160,46
671,446	36,37
671,633	90,3
671,82	222,96
672,007	37,74
672,194	-79
672,381	211,36
672,568	299,19
672,755	-37,81
672,942	-89,01
673,129	231,84
673,316	216,14
673,503	-38,72
673,69	31,82
673,877	237,3
674,064	195,88
674,251	-39,4
674,437	-13,01
674,624	52,07
674,811	170,85
674,998	75,74
675,185	-11,42
675,372	107,59
675,558	200,89
675,745	-42,36
675,932	-129,97
676,119	163,57
676,305	18,85
676,492	-115,86
676,679	-72,17
676,865	154,47
677,052	139
677,239	70,73
677,425	30,68
677,612	281,44
677,798	151,06
677,985	-95,15
678,172	-112,68
678,358	180,41
678,545	106
678,731	-33,03
678,918	32,05
679,104	158,57
679,291	294,87
679,477	101,91
679,664	-33,03
679,85	214,32
680,036	164,71
680,223	24,31
680,409	48,89
680,596	189,06
680,782	75,74
680,968	-113,59
681,155	3,15
681,341	126,25
681,527	151,28
681,714	53,21
681,9	72,32
682,086	266,88
682,272	79,15
682,459	44,11
682,645	-220,54
682,831	190,42
683,017	190,42
683,204	-214,62
683,39	2,47
683,576	196,79
683,762	246,63
683,948	-72,85
684,134	107,37
684,32	134,22
684,506	118,74
684,693	-157,73
684,879	167,67
685,065	183,14
685,251	188,6
685,437	15,89
685,623	-41,91
685,809	169,72
685,995	284,63
686,181	-77,41
686,366	22,26
686,552	100,54
686,738	237,75
686,924	-91,97
687,11	6,11
687,296	161,52
687,482	257,32
687,668	134,22
687,853	132,17
688,039	110,78
688,225	185,19
688,411	17,48
688,597	-143,85
688,782	163,34
688,968	284,17
689,154	-129,29
689,34	-280,15
689,525	243,22
689,711	286,68
689,897	-368,9
690,082	-12,1
690,268	206,12
690,454	263,24
690,639	-40,77
690,825	-198,46
691,01	83,02
691,196	266,88
691,381	-177,76
691,567	-66,48
691,753	190,88
691,938	198,84
692,124	60,95
692,309	42,29
692,494	158,57
692,68	158,34
692,865	-2,54
693,051	-108,81
693,236	236,16
693,422	235,25
693,607	84,84
693,792	-40,09
693,978	276,44
694,163	625,73
694,348	840,77
694,534	1510
694,719	2603,39
694,904	3200,03
695,089	3398,45
695,275	3521,56
695,46	3611,21
695,645	2866,89
695,83	2300,29
696,016	1882,73
696,201	1719,57
696,386	1406,69
696,571	903,8
696,756	877,18
696,941	838,49
697,126	823,02
697,311	506,04
697,497	301,24
697,682	459,39
697,867	453,93
698,052	161,98
698,237	-85,83
698,422	194,06
698,607	314,21
698,792	-8,68
698,977	-84
699,162	149,69
699,347	295,1
699,531	-53,97
699,716	-72,4
699,901	130,58
700,086	197,48
700,271	-37,13
700,456	-203,92
700,641	228,65
700,825	125,57
701,01	-203,47
701,195	-83,09
701,38	141,73
701,565	361,09
701,749	-26,89
701,934	102,59
702,119	267,56
702,303	193,84
702,488	-124,74
702,673	-193,23
702,857	87,57
703,042	183,82
703,227	-109,04
703,411	-52,37
703,596	105,09
703,78	161,98
703,965	51,62
704,15	50,48
704,334	362,68
704,519	753,84
704,703	1076,74
704,888	1507,95
705,072	2022,9
705,257	2286,41
705,441	2286,41
705,625	1667,46
705,81	1877,49
705,994	1639,93
706,179	1055,12
706,363	881,27
706,547	1050,57
706,732	820,29
706,916	433,68
707,1	409,1
707,285	516,05
707,469	549,27
707,653	179,27
707,837	159,25
708,022	337,19
708,206	355,4
708,39	146,96
708,574	-92,2
708,759	247,31
708,943	288,04
709,127	-152,95
709,311	-160,23
709,495	205,44
709,679	165,85
709,863	-99,02
710,047	-56,47
710,231	144
710,415	217,73
710,6	-188,68
710,784	40,01
710,968	42,51
711,152	194,06
711,336	4,74
711,519	-122,69
711,703	52,75
711,887	134,9
712,071	-42,59
712,255	47,52
712,439	66,18
712,623	282,35
712,807	101
712,991	52,53
713,174	377,24
713,358	340,61
713,542	88,02
713,726	151,06
713,91	351,53
714,093	420,25
714,277	83,47
714,461	-89,47
714,645	204,3
714,828	222,28
715,012	32,27
715,196	79,15
715,379	204,53
715,563	154,7
715,747	-103,8
715,93	-84,46
716,114	118,52
716,297	273,02
716,481	5,65
716,664	-56,47
716,848	181,09
717,031	160,84
717,215	65,95
717,398	-79,68
717,582	157,2
717,765	71,64
717,949	-11,64
718,132	-81,27
718,316	171,31
718,499	218,18
718,682	-189,13
718,866	58,44
719,049	214,32
719,233	111,69
719,416	-99,48
719,599	-230,78
719,782	210,9
719,966	192,24
720,149	-0,95
720,332	-180,94
720,515	146,96
720,699	168,12
720,882	-73,54
721,065	23,17
721,248	237,07
721,431	240,71
721,615	15,21
721,798	-165,47
721,981	92,8
722,164	222,51
722,347	-125,87
722,53	-229,64
722,713	161,75
722,896	152,65
723,079	-49,19
723,262	-144,99
723,445	125,12
723,628	213,63
723,811	-0,49
723,994	-48,96
724,177	188,15
724,36	174,72
724,543	-57,38
724,726	41,6
724,909	269,61
725,091	331,28
725,274	412,97
725,457	606,16
725,64	849,19
725,823	909,26
726,006	725,85
726,188	711,97
726,371	640,29
726,554	688,53
726,737	388,17
726,919	278,26
727,102	444,83
727,285	426,17
727,467	120,79
727,65	11,34
727,833	364,73
728,015	272,8
728,198	38,19
728,38	-4,82
728,563	163,34
728,746	176,09
728,928	-33,03
729,111	16,8
729,293	202,48
729,476	129,67
729,658	-60,79
729,841	-1,18
730,023	164,48
730,205	218,18
730,388	-124,74
730,57	-89,47
730,753	147,87
730,935	281,67
731,117	-191,18
731,3	-11,64
731,482	232,07
731,664	138,31
731,847	-67,17
732,029	-132,02
732,211	154,24
732,394	211,59
732,576	-87,65
732,758	-196,42
732,94	101,91
733,122	171,08
733,305	-193,68
733,487	17,48
733,669	171,08
733,851	244,35
734,033	-77,41
734,215	-94,93
734,397	161,98
734,58	120,56
734,762	-48,73
734,944	-93,11
735,126	160,61
735,308	286,22
735,49	116,24
735,672	31,82
735,854	390,9
736,036	784,33
736,218	940,66
736,399	1837,9
736,581	2811,37
736,763	3429,17
736,945	3467,86
737,127	3744,1
737,309	3635,56
737,491	2935,38
737,672	2339,2
737,854	1840,18
738,036	1750,07
738,218	1507,49
738,4	1175,95
738,581	664,64
738,763	669,65
738,945	609,35
739,127	168,12
739,308	47,52
739,49	229,79
739,672	270,98
739,853	-90,83
740,035	70,5
740,216	280,99
740,398	331,96
740,58	-13,24
740,761	-17,33
740,943	88,71
741,124	156,52
741,306	-63,52
741,487	-53,51
741,669	179,05
741,85	120,34
742,032	-123,83
742,213	24,99
742,394	159,48
742,576	253,46
742,757	-180,26
742,939	-187,09
743,12	146,05
743,301	209,77
743,483	53,21
743,664	-54,88
743,845	135,36
744,027	273,48
744,208	38,65
744,389	-52,6
744,57	209,54
744,752	124,21
744,933	-37,58
745,114	-18,92
745,295	185,87
745,476	77,1
745,657	29,32
745,839	33,41
746,02	241,39
746,201	224,78
746,382	-111,54
746,563	-205,29
746,744	121,93
746,925	210,45
747,106	-27,8
747,287	-190,95
747,468	259,14
747,649	195,43
747,83	75,28
748,011	281,67
748,192	1185,51
748,373	1768,95
748,554	2359,22
748,735	2692,81
748,915	3522,24
749,096	3766,63
749,277	3788,93
749,458	3938,66
749,639	4651,35
749,82	4784,93
750	4692,77
750,181	4136,4
750,362	4024,68
750,543	3210,72
750,723	2326,68
750,904	1933,7
751,085	1726,85
751,265	1311,34
751,446	840,77
751,627	560,65
751,807	545,18
751,988	411,6
752,169	77,56
752,349	124,66
752,53	279,4
752,71	234,11
752,891	-233,05
753,071	-43,73
753,252	216,14
753,432	287,82
753,613	6,79
753,793	-24,84
753,974	287,59
754,154	184,05
754,334	-67,17
754,515	183,37
754,695	101,68
754,876	217,73
755,056	-289,48
755,236	-15,28
755,417	145,6
755,597	253,23
755,777	-71,49
755,957	-98,57
756,138	182,23
756,318	220,69
756,498	5,2
756,678	-11,42
756,859	51,84
757,039	152,42
757,219	-40,31
757,399	-4,82
757,579	211,36
757,759	236,84
757,939	140,59
758,119	-302,45
758,3	301,92
758,48	212,5
758,66	38,65
758,84	39,33
759,02	117,83
759,2	278,26
759,38	-89,01
759,56	-100,16
759,74	136,72
759,919	193,15
760,099	-138,16
760,279	-114,72
760,459	105,77
760,639	240,03
760,819	169,03
760,999	1177,09
761,178	3240,08
761,358	6166,17
761,538	9700,05
761,718	13014,8
761,898	15527,21
762,077	17092,31
762,257	16490,21
762,437	14761,72
762,616	12388,35
762,796	9725,08
762,976	7412,47
763,155	5649,4
763,335	4402,64
763,515	3111,28
763,694	1839,95
763,874	1365,73
764,053	1268,11
764,233	1509,54
764,413	1718,66
764,592	2156,25
764,772	2848,23
764,951	3317,67
765,131	3177,73
765,31	2891,92
765,489	2655,27
765,669	2239,53
765,848	1507,27
766,028	1316,35
766,207	1026,68
766,386	827,57
766,566	522,42
766,745	288,95
766,924	232,75
767,104	375,2
767,283	216,36
767,462	119,43
767,642	701,05
767,821	1084,25
768	1390,99
768,179	1512,05
768,358	1903,66
768,538	2103,68
768,717	1694,77
768,896	1445,6
769,075	1294,96
769,254	1108,82
769,433	640,52
769,612	410,24
769,791	752,02
769,97	1069
770,149	1606,93
770,328	2814,1
770,507	4144,37
770,686	5227,52
770,865	5601,38
771,044	5962,51
771,223	5764,54
771,402	4817,01
771,581	3610,99
771,76	2819,1
771,939	2123,48
772,118	1712,97
772,297	985,26
772,475	770,91
772,654	720,16
772,833	653,04
773,012	-32,12
773,191	-11,19
773,369	295,78
773,548	286,22
773,727	219,09
773,906	-180,49
774,084	201,57
774,263	233,89
774,442	18,39
774,62	58,67
774,799	152,65
774,977	86,66
775,156	-113,59
775,335	-112,22
775,513	209,08
775,692	228,42
775,87	-270,14
776,049	-10,73
776,227	213,86
776,406	262,78
776,584	14,53
776,763	-179,8
776,941	215,23
777,119	136,95
777,298	84,16
777,476	-251,94
777,655	276,21
777,833	270,98
778,011	-206,66
778,19	-103,12
778,368	159,25
778,546	236,39
778,725	-231
778,903	24,77
779,081	194,52
779,259	298,51
779,437	-37,58
779,616	-14,15
779,794	198,62
779,972	370,87
780,15	-5,95
780,328	-96,29
780,506	144,23
780,685	193,15
780,863	-17,1
781,041	93,03
781,219	178,82
781,397	193,61
781,575	-151,36
781,753	4,29
781,931	148,33
782,109	242,53
782,287	-40,31
782,465	-69,67
782,643	122,39
782,82	159,02
782,998	-251,48
783,176	-146,58
783,354	232,98
783,532	248,9
783,71	-60,34
783,888	-127,47
784,065	123,52
784,243	179,96
784,421	-38,27
784,599	-92,2
784,776	137,86
784,954	224,33
785,132	-79,91
785,31	-18,47
785,487	190,88
785,665	145,14
785,842	-84
786,02	-328,85
786,198	183,14
786,375	291,68
786,553	-91,06
786,73	-61,25
786,908	152,42
787,085	171,76
787,263	16,57
787,44	-1,86
787,618	192,93
787,795	261,65
787,973	87,57
788,15	-34,63
788,328	113,51
788,505	94,17
788,682	-132,47
788,86	-21,2
789,037	171,08
789,215	194,97
789,392	-16,88
789,569	-132,7
789,746	182,23
789,924	160,61
790,101	-170,02
790,278	-169,79
790,455	237,75
790,633	156,97
790,81	-81,5
790,987	-31,67
791,164	181,78
791,341	178,59
791,518	72,1
791,695	-77,41
791,873	233,66
792,05	301,92
792,227	70,05
792,404	380,66
792,581	987,08
792,758	1819,24
792,935	2236,12
793,112	2493,02
793,289	3020,72
793,466	2883,5
793,643	2474,82
793,82	2014,48
793,996	1548,45
794,173	1218,5
794,35	742,69
794,527	431,17
794,704	526,75
794,881	545,4
795,057	216,82
795,234	328,09
795,411	409,1
795,588	237,07
795,765	194,52
795,941	7,93
796,118	253
796,295	303,52
796,471	-152,73
796,648	9,52
796,825	118,97
797,001	277,35
797,178	-171,61
797,354	-128,6
797,531	153,33
797,708	210,22
797,884	-90,83
798,061	150,83
798,237	557,46
798,414	883,09
798,59	884
798,767	1307,93
798,943	1895,7
799,119	2368,78
799,296	2598,15
799,472	2959,28
799,649	3491,07
799,825	3432,36
800,001	3285,81
800,178	3099,22
800,354	2775,41
800,53	2159,43
800,707	1520,47
800,883	1114,51
801,059	1116,79
801,235	648,71
801,411	560,42
801,588	544,27
801,764	529,48
801,94	376,33
802,116	208,85
802,292	140,13
802,468	305,79
802,645	259,37
802,821	-122,01
802,997	-16,65
803,173	184,73
803,349	245,72
803,525	26,81
803,701	-33,49
803,877	169,72
804,053	192,02
804,229	51,62
804,405	-127,92
804,581	279,62
804,756	326,27
804,932	57,08
805,108	55,48
805,284	234,8
805,46	275,3
805,636	4,51
805,812	41,38
805,987	247,77
806,163	213,41
806,339	-1839,11
806,515	77,33
806,69	184,05
806,866	229,56
807,042	-136,11
807,217	6,11
807,393	213,41
807,569	324,68
807,744	-38,72
807,92	252,32
808,096	1358,45
808,271	2023,58
808,447	2628,64
808,622	3124,48
808,798	3613,94
808,973	4071,78
809,149	4636,34
809,324	5728,36
809,5	7530,8
809,675	8889,97
809,851	9481,83
810,026	9609,26
810,201	9373,74
810,377	7911,04
810,552	5913,59
810,728	4315,03
810,903	3681,3
811,078	3070,32
811,253	2154,2
811,429	2107,09
811,604	1869,3
811,779	1503,85
811,955	897,2
812,13	617,99
812,305	675,11
812,48	481,69
812,655	-18,01
812,83	-10,05
813,006	311,71
813,181	286,22
813,356	170,4
813,531	198,84
813,706	273,25
813,881	300,1
814,056	64,59
814,231	-80,59
814,406	208,63
814,581	387,94
814,756	8,15
814,931	-16,42
815,106	295,55
815,281	285,54
815,456	-89,47
815,631	207,94
815,805	1034,41
815,98	1840,4
816,155	3097,86
816,33	4525,52
816,505	5957,96
816,68	6717,07
816,854	7080,93
817,029	7629,33
817,204	8803,95
817,379	9958,32
817,553	10969,34
817,728	12268,89
817,903	12819,56
818,077	12294,37
818,252	10784,57
818,427	8537,26
818,601	6924,37
818,776	5430,95
818,95	4273,16
819,125	3326,55
819,299	3171,58
819,474	2574,94
819,648	1932,33
819,823	1306,57
819,997	1361,86
820,172	1033,73
820,346	501,03
820,521	323,09
820,695	448,01
820,87	467,58
821,044	118,52
821,218	98,95
821,393	262,56
821,567	336,74
821,741	41,15
821,916	60,49
822,09	206,35
822,264	340,15
822,438	84,84
822,613	1,55
822,787	207,49
822,961	294,64
823,135	-131,11
823,309	42,74
823,483	218,64
823,658	292,59
823,832	-66,71
824,006	458,93
824,18	837,13
824,354	1178
824,528	1221,01
824,702	1358,45
824,876	1819,01
825,05	1767,81
825,224	1331,82
825,398	943,17
825,572	1092,89
825,746	875,13
825,92	355,85
826,093	476,23
826,267	635,29
826,441	638,93
826,615	189,51
826,789	46,84
826,963	450,74
827,136	320,81
827,31	28,41
827,484	180,64
827,658	295,78
827,831	211,81
828,005	19,99
828,179	107,37
828,353	203,17
828,526	217,96
828,7	7,93
828,873	90,53
829,047	101
829,221	248,9
829,394	-96,29
829,568	-59,88
829,741	209,99
829,915	287,13
830,088	-244,66
830,262	-264
830,435	187,01
830,609	137,4
830,782	-98,57
830,956	-111,54
831,129	151,06
831,302	253,46
831,476	-9,6
831,649	28,63
831,822	160,61
831,996	140,82
832,169	-274,24
832,342	146,28
832,516	311,25
832,689	301,47
832,862	-132,7
833,035	-249,21
833,209	55,26
833,382	181,32
833,555	126,25
833,728	56,17
833,901	157,88
834,074	278,94
834,247	16,8
834,42	-107,44
834,594	171,08
834,767	150,37
834,94	-178,89
835,113	-65,8
835,286	94,62
835,459	189,06
835,632	-11,19
835,805	-34,17
835,977	86,66
836,15	141,5
836,323	26,36
836,496	-134,29
836,669	104,86
836,842	162,43
837,015	-154,32
837,188	-27,12
837,36	187,46
837,533	183,82
837,706	-117,45
837,879	-79,45
838,051	241,39
838,224	278,26
838,397	312,85
838,569	514,68
838,742	1226,24
838,915	1662,46
839,087	1508,86
839,26	1655,63
839,433	2024,72
839,605	1943,26
839,778	1649,03
839,95	1362,32
840,123	1735,73
840,295	1879,31
840,468	2244,99
840,64	2420,89
840,813	2944,49
840,985	2831,17
841,158	2490,52
841,33	2214,73
841,502	2123,02
841,675	1737,78
841,847	1088,57
842,019	893,33
842,192	1061,95
842,364	976,62
842,536	670,33
842,709	483,28
842,881	587,5
843,053	432,54
843,225	182,69
843,398	-33,72
843,57	268,93
843,742	265,74
843,914	31,59
844,086	-175,71
844,258	186,1
844,43	146,05
844,602	-120,87
844,775	3,6
844,947	219,09
845,119	199,75
845,291	-250,12
845,463	-255,12
845,635	204,3
845,807	140,13
845,979	-76,27
846,15	-179,58
846,322	199,07
846,494	213,86
846,666	14,98
846,838	-92,65
847,01	276,89
847,182	188,6
847,354	-117,23
847,525	-115,41
847,697	172,22
847,869	136,72
848,041	-112,68
848,212	-149,99
848,384	240,03
848,556	205,44
848,727	-133,38
848,899	65,5
849,071	167,9
849,242	159,02
849,414	-132,93
849,585	-34,4
849,757	324,91
849,929	327,41
850,1	314,89
850,272	254,37
850,443	569,07
850,615	604,57
850,786	564,06
850,958	521,74
851,129	646,44
851,3	700,14
851,472	260,05
851,643	257,1
851,815	389,3
851,986	400
852,157	67,77
852,329	-167,06
852,5	434,59
852,671	263,01
852,842	2,01
853,014	52,98
853,185	301,92
853,356	182,69
853,527	-133,16
853,698	-80,14
853,87	85,98
854,041	152,42
854,212	-142,49
854,383	-81,05
854,554	209,54
854,725	288,73
854,896	-106,99
855,067	-96,06
855,238	165,62
855,409	96,44
855,58	-56,7
855,751	-241,7
855,922	183,6
856,093	-225,54
856,264	54,57
856,435	-98,57
856,606	216,36
856,777	232,98
856,948	-106,08
857,118	3,15
857,289	178,59
857,46	81,88
857,631	-88,56
857,802	-125,65
857,972	219,78
858,143	214,09
858,314	-22,34
858,484	65,95
858,655	211,59
858,826	149,01
858,996	-63,98
859,167	-274,47
859,338	282,35
859,508	52,98
859,679	-87,19
859,849	48,66
860,02	246,63
860,19	125,34
860,361	-227,36
860,531	-48,51
860,702	206,35
860,872	135,81
861,043	-41,68
861,213	-174,57
861,384	102,36
861,554	60,26
861,724	49,8
861,895	1,78
862,065	23,86
862,235	182,69
862,406	-115,18
862,576	-45,55
862,746	128,98
862,916	86,66
863,087	-198,69
863,257	-100,16
863,427	208,63
863,597	271,89
863,767	-124,28
863,937	27,72
864,108	135,36
864,278	174,27
864,448	-184,13
864,618	-172,75
864,788	181,09
864,958	191,11
865,128	7,47
865,298	-44,87
865,468	282,58
865,638	276,89
865,808	-26,89
865,978	-180,94
866,148	126,03
866,318	313,53
866,487	-96,06
866,657	-5,73
866,827	192,24
866,997	267,34
867,167	-184,36
867,337	-74,22
867,506	226,6
867,676	201,12
867,846	-35,08
868,016	-159,55
868,185	162,89
868,355	125,57
868,525	-73,54
868,694	-117
868,864	227,06
869,034	66,41
869,203	-165,24
869,373	-170,25
869,542	241,85
869,712	209,54
869,881	-145,67
870,051	-35,54
870,22	157,88
870,39	144,69
870,559	-111,77
870,729	82,34
870,898	146,51
871,068	277,58
871,237	-33,49
871,406	15,21
871,576	80,52
871,745	178,59
871,914	-21,88
872,084	-83,78
872,253	190,88
872,422	123,3
872,591	-201,88
872,761	28,63
872,93	255,96
873,099	114,88
873,268	-65,12
873,437	101,22
873,607	213,41
873,776	95,53
873,945	-162,51
874,114	31,59
874,283	206,81
874,452	106,91
874,621	-140,21
874,79	-160,01
874,959	279,4
875,128	91,67
875,297	-182,76
875,466	-162,74
875,635	216,82
875,804	116,47
875,973	-42,82
876,142	-204,61
876,31	215,45
876,479	175,18
876,648	-62,84
876,817	33,41
876,986	238,44
877,155	99,17
877,323	58,44
877,492	-122,01
877,661	217,05
877,829	98,95
877,998	-81,27
878,167	-172,98
878,335	201,8
878,504	101,22
878,673	-55,11
878,841	104,64
879,01	135,81
879,178	171,08
879,347	-152,73
879,515	-18,24
879,684	105,09
879,852	137,18
880,021	-84,91
880,189	-138,84
880,358	173,58
880,526	24,54
880,695	19,3
880,863	-133,16
881,031	180,41
881,2	272,8
881,368	54,12
881,536	-283,57
881,705	244,58
881,873	236,84
882,041	-113,36
882,21	-135,43
882,378	245,04
882,546	116,47
882,714	-145,44
882,882	14,75
883,05	87,11
883,219	45,7
883,387	43,65
883,555	-20,06
883,723	169,72
883,891	220,92
884,059	36,14
884,227	-175,71
884,395	212,5
884,563	247,31
884,731	-95,84
884,899	-183,44
885,067	157,2
885,235	170,4
885,403	-153,64
885,571	-154,55
885,739	262,56
