Data from Na 6_Subt6__0__13-58-28-574.txt Node

Date: Tue Feb 02 13:58:28 CET 2021
User: Praktikum
Spectrometer: USB4F03543
Trigger mode: 4
Integration Time (sec): 8,000000E-1
Scans to average: 1
Electric dark correction enabled: true
Nonlinearity correction enabled: false
Boxcar width: 0
XAxis mode: Wavelengths
Number of Pixels in Spectrum: 3648
>>>>>Begin Spectral Data<<<<<
179,969	-240,29
180,181	-240,29
180,394	-240,29
180,606	-250,53
180,819	-266,92
181,031	169,3
181,243	429,39
181,456	-66,22
181,668	-256,68
181,88	105,81
182,093	146,77
182,305	-211,62
182,518	-96,94
182,73	25,94
182,942	189,78
183,155	-240,29
183,367	-195,24
183,579	-29,35
183,791	451,92
184,004	165,2
184,216	91,48
184,428	398,67
184,641	437,58
184,853	163,15
185,065	152,92
185,277	314,7
185,49	382,29
185,702	107,86
185,914	109,91
186,126	523,6
186,338	644,43
186,551	157,01
186,763	136,53
186,975	503,12
187,187	591,18
187,399	148,82
187,612	120,15
187,824	427,34
188,036	470,35
188,248	105,81
188,46	114
188,672	394,58
188,885	384,34
189,097	171,35
189,309	122,2
189,521	390,48
189,733	353,62
189,945	197,97
190,157	200,02
190,369	320,85
190,581	490,83
190,794	111,96
191,006	191,83
191,218	484,69
191,43	499,02
191,642	114
191,854	218,45
192,066	413,01
192,278	337,23
192,49	122,2
192,702	140,63
192,914	427,34
193,126	519,5
193,338	257,36
193,55	263,51
193,762	548,17
193,974	445,77
194,186	202,07
194,398	208,21
194,61	578,89
194,822	580,94
195,034	150,87
195,246	298,32
195,457	648,52
195,669	597,32
195,881	222,55
196,093	281,94
196,305	509,26
196,517	355,66
196,729	132,44
196,941	118,1
197,153	499,02
197,365	433,49
197,576	64,85
197,788	269,65
198	478,54
198,212	447,82
198,424	99,67
198,636	103,76
198,847	468,3
199,059	382,29
199,271	68,95
199,483	-6,83
199,695	458,06
199,906	384,34
200,118	13,65
200,33	157,01
200,542	66,9
200,753	372,05
200,965	269,65
201,177	195,92
201,389	466,25
201,6	429,39
201,812	169,3
202,024	107,86
202,235	597,32
202,447	365,9
202,659	169,3
202,871	150,87
203,082	433,49
203,294	300,37
203,506	97,62
203,717	228,69
203,929	437,58
204,141	423,25
204,352	161,11
204,564	124,24
204,775	419,15
204,987	421,2
205,199	81,24
205,41	154,96
205,622	460,11
205,833	505,17
206,045	189,78
206,257	71
206,468	441,68
206,68	439,63
206,891	236,88
207,103	101,72
207,314	238,93
207,526	410,96
207,737	126,29
207,949	224,59
208,16	468,3
208,372	462,16
208,583	128,34
208,795	187,73
209,006	492,88
209,218	359,76
209,429	138,58
209,641	83,28
209,852	400,72
210,064	464,21
210,275	193,87
210,487	152,92
210,698	267,6
210,909	427,34
211,121	83,28
211,332	204,11
211,544	343,38
211,755	542,03
211,966	216,4
212,178	75,09
212,389	486,73
212,6	478,54
212,812	245,07
213,023	138,58
213,234	517,45
213,446	523,6
213,657	134,48
213,868	275,79
214,08	277,84
214,291	392,53
214,502	204,11
214,714	150,87
214,925	380,24
215,136	419,15
215,347	173,39
215,559	95,57
215,77	390,48
215,981	486,73
216,192	189,78
216,404	148,82
216,615	486,73
216,826	607,56
217,037	101,72
217,249	230,74
217,46	435,53
217,671	503,12
217,882	175,44
218,093	288,08
218,304	492,88
218,516	460,11
218,727	1,37
218,938	103,76
219,149	298,32
219,36	265,55
219,571	36,18
219,782	85,33
219,993	544,08
220,205	302,42
220,416	232,79
220,627	75,09
220,838	427,34
221,049	341,33
221,26	159,06
221,471	230,74
221,682	496,97
221,893	318,8
222,104	140,63
222,315	324,94
222,526	421,2
222,737	509,26
222,948	48,47
223,159	167,25
223,37	619,85
223,581	421,2
223,792	232,79
224,003	122,2
224,214	433,49
224,425	408,91
224,636	99,67
224,847	111,96
225,058	496,97
225,269	388,43
225,48	56,66
225,691	111,96
225,902	505,17
226,112	521,55
226,323	128,34
226,534	122,2
226,745	429,39
226,956	482,64
227,167	195,92
227,378	181,59
227,589	404,82
227,799	427,34
228,01	185,68
228,221	226,64
228,432	363,86
228,643	478,54
228,853	312,66
229,064	128,34
229,275	617,8
229,486	484,69
229,697	314,7
229,907	310,61
230,118	648,52
230,329	638,28
230,54	171,35
230,75	91,48
230,961	404,82
231,172	472,4
231,383	257,36
231,593	148,82
231,804	974,15
232,015	570,7
232,225	134,48
232,436	79,19
232,647	437,58
232,857	470,35
233,068	216,4
233,279	230,74
233,489	533,84
233,7	582,99
233,91	159,06
234,121	195,92
234,332	544,08
234,542	513,36
234,753	236,88
234,964	232,79
235,174	589,13
235,385	615,76
235,595	290,13
235,806	296,27
236,016	619,85
236,227	470,35
236,437	312,66
236,648	343,38
236,858	750,92
237,069	531,79
237,279	318,8
237,49	277,84
237,7	662,86
237,911	619,85
238,121	337,23
238,332	226,64
238,542	582,99
238,753	773,45
238,963	365,9
239,174	230,74
239,384	838,98
239,595	699,72
239,805	329,04
240,015	251,22
240,226	808,27
240,436	660,81
240,647	314,7
240,857	433,49
241,067	535,89
241,278	1318,21
241,488	347,47
241,698	447,82
241,909	626
242,119	701,77
242,329	286,03
242,54	253,27
242,75	646,48
242,96	605,52
243,171	310,61
243,381	277,84
243,591	701,77
243,801	712,01
244,012	568,65
244,222	312,66
244,432	488,78
244,642	777,55
244,853	439,63
245,063	421,2
245,273	832,84
245,483	595,28
245,694	529,74
245,904	355,66
246,114	591,18
246,324	765,26
246,534	378,19
246,744	435,53
246,955	664,91
247,165	814,41
247,375	558,41
247,585	494,93
247,795	740,68
248,005	759,11
248,215	554,32
248,425	456,01
248,636	621,9
248,846	798,03
249,056	404,82
249,266	486,73
249,476	660,81
249,686	853,32
249,896	433,49
250,106	482,64
250,316	681,29
250,526	806,22
250,736	517,45
250,946	548,17
251,156	705,87
251,366	769,35
251,576	505,17
251,786	488,78
251,996	732,49
252,206	863,56
252,416	449,87
252,626	494,93
252,836	779,59
253,046	824,65
253,256	552,27
253,466	619,85
253,676	857,42
253,885	783,69
254,095	570,7
254,305	523,6
254,515	920,9
254,725	875,85
254,935	607,56
255,145	490,83
255,355	843,08
255,564	820,55
255,774	609,61
255,984	703,82
256,194	820,55
256,404	863,56
256,614	615,76
256,823	566,6
257,033	906,57
257,243	793,93
257,453	562,51
257,662	482,64
257,872	982,34
258,082	947,53
258,292	626
258,501	548,17
258,711	1232,19
258,921	847,18
259,131	466,25
259,34	486,73
259,55	832,84
259,76	888,14
259,969	574,8
260,179	568,65
260,389	963,91
260,598	1060,17
260,808	632,14
261,018	580,94
261,227	1011,01
261,437	1000,77
261,647	458,06
261,856	554,32
262,066	908,62
262,275	836,94
262,485	554,32
262,694	562,51
262,904	935,24
263,114	933,19
263,323	562,51
263,533	587,08
263,742	875,85
263,952	879,94
264,161	589,13
264,371	494,93
264,58	841,03
264,79	802,12
264,999	517,45
265,209	511,31
265,418	1011,01
265,628	908,62
265,837	578,89
266,047	544,08
266,256	687,43
266,466	781,64
266,675	507,21
266,884	630,09
267,094	662,86
267,303	791,88
267,513	533,84
267,722	662,86
267,931	849,22
268,141	666,96
268,35	490,83
268,559	378,19
268,769	722,25
268,978	724,3
269,187	398,67
269,397	451,92
269,606	755,02
269,815	613,71
270,025	365,9
270,234	488,78
270,443	642,38
270,653	761,16
270,862	390,48
271,071	380,24
271,28	701,77
271,49	611,66
271,699	423,25
271,908	372,05
272,117	701,77
272,327	634,19
272,536	351,57
272,745	279,89
272,954	712,01
273,163	683,34
273,372	396,62
273,582	286,03
273,791	449,87
274	486,73
274,209	413,01
274,418	353,62
274,627	429,39
274,836	527,69
275,046	200,02
275,255	210,26
275,464	466,25
275,673	458,06
275,882	249,17
276,091	392,53
276,3	427,34
276,509	367,95
276,718	322,9
276,927	202,07
277,136	253,27
277,345	478,54
277,554	240,98
277,763	232,79
277,972	234,83
278,181	441,68
278,39	212,31
278,599	273,75
278,808	453,97
279,017	310,61
279,226	230,74
279,435	245,07
279,644	490,83
279,853	259,41
280,062	413,01
280,271	333,14
280,48	281,94
280,688	408,91
280,897	173,39
281,106	234,83
281,315	378,19
281,524	343,38
281,733	283,99
281,942	240,98
282,151	195,92
282,359	283,99
282,568	324,94
282,777	394,58
282,986	466,25
283,195	429,39
283,403	392,53
283,612	406,86
283,821	630,09
284,03	542,03
284,238	591,18
284,447	437,58
284,656	466,25
284,865	365,9
285,073	222,55
285,282	181,59
285,491	429,39
285,699	294,22
285,908	349,52
286,117	193,87
286,325	324,94
286,534	312,66
286,743	214,35
286,951	298,32
287,16	433,49
287,369	298,32
287,577	126,29
287,786	310,61
287,995	372,05
288,203	281,94
288,412	275,79
288,62	189,78
288,829	351,57
289,037	398,67
289,246	255,31
289,455	163,15
289,663	222,55
289,872	298,32
290,08	275,79
290,289	326,99
290,497	396,62
290,706	372,05
290,914	283,99
291,123	361,81
291,331	472,4
291,54	363,86
291,748	417,1
291,957	263,51
292,165	427,34
292,373	410,96
292,582	234,83
292,79	191,83
292,999	267,6
293,207	187,73
293,415	224,59
293,624	236,88
293,832	349,52
294,041	392,53
294,249	326,99
294,457	228,69
294,666	159,06
294,874	286,03
295,082	83,28
295,291	234,83
295,499	306,51
295,707	273,75
295,915	218,45
296,124	175,44
296,332	324,94
296,54	365,9
296,749	261,46
296,957	308,56
297,165	492,88
297,373	470,35
297,581	425,29
297,79	161,11
297,998	419,15
298,206	386,38
298,414	251,22
298,622	324,94
298,831	453,97
299,039	396,62
299,247	351,57
299,455	361,81
299,663	474,45
299,871	374,1
300,08	200,02
300,288	324,94
300,496	255,31
300,704	316,75
300,912	396,62
301,12	222,55
301,328	429,39
301,536	298,32
301,744	478,54
301,952	224,59
302,16	499,02
302,368	392,53
302,576	195,92
302,784	384,34
302,992	472,4
303,2	453,97
303,408	273,75
303,616	423,25
303,824	619,85
304,032	626
304,24	642,38
304,448	523,6
304,656	689,48
304,864	673,1
305,072	386,38
305,28	316,75
305,488	566,6
305,696	345,42
305,904	296,27
306,111	202,07
306,319	456,01
306,527	386,38
306,735	263,51
306,943	253,27
307,151	392,53
307,359	413,01
307,566	261,46
307,774	263,51
307,982	517,45
308,19	343,38
308,398	210,26
308,605	222,55
308,813	429,39
309,021	509,26
309,229	419,15
309,436	302,42
309,644	357,71
309,852	439,63
310,06	308,56
310,267	275,79
310,475	460,11
310,683	298,32
310,89	326,99
311,098	185,68
311,306	404,82
311,513	374,1
311,721	439,63
311,929	365,9
312,136	396,62
312,344	464,21
312,552	329,04
312,759	482,64
312,967	394,58
313,174	347,47
313,382	267,6
313,589	261,46
313,797	343,38
314,005	261,46
314,212	240,98
314,42	437,58
314,627	415,06
314,835	359,76
315,042	329,04
315,25	341,33
315,457	316,75
315,665	374,1
315,872	269,65
316,08	423,25
316,287	449,87
316,495	296,27
316,702	456,01
316,909	343,38
317,117	353,62
317,324	281,94
317,532	310,61
317,739	347,47
317,946	437,58
318,154	404,82
318,361	468,3
318,569	421,2
318,776	517,45
318,983	437,58
319,191	451,92
319,398	247,12
319,605	388,43
319,813	439,63
320,02	267,6
320,227	443,73
320,434	318,8
320,642	456,01
320,849	480,59
321,056	281,94
321,264	402,77
321,471	378,19
321,678	329,04
321,885	417,1
322,092	406,86
322,3	582,99
322,507	408,91
322,714	298,32
322,921	675,15
323,128	507,21
323,336	281,94
323,543	249,17
323,75	365,9
323,957	458,06
324,164	431,44
324,371	505,17
324,578	474,45
324,786	421,2
324,993	326,99
325,2	304,46
325,407	539,98
325,614	517,45
325,821	476,49
326,028	488,78
326,235	370
326,442	476,49
326,649	380,24
326,856	320,85
327,063	556,36
327,27	570,7
327,477	548,17
327,684	421,2
327,891	656,72
328,098	691,53
328,305	1248,58
328,512	1865,02
328,719	3061,03
328,926	4330,77
329,133	6481,14
329,34	8357,08
329,546	11695,27
329,753	14023,81
329,96	16163,93
330,167	16004,19
330,374	15742,05
330,581	13794,43
330,788	10572,98
330,995	7515,36
331,201	5317,89
331,408	3583,26
331,615	2565,42
331,822	1449,28
332,029	1150,28
332,235	900,42
332,442	628,04
332,649	560,46
332,856	720,2
333,062	494,93
333,269	585,04
333,476	396,62
333,683	482,64
333,889	681,29
334,096	550,22
334,303	441,68
334,509	634,19
334,716	466,25
334,923	456,01
335,129	472,4
335,336	550,22
335,543	580,94
335,749	435,53
335,956	585,04
336,163	619,85
336,369	617,8
336,576	429,39
336,782	552,27
336,989	705,87
337,196	630,09
337,402	644,43
337,609	456,01
337,815	630,09
338,022	587,08
338,228	427,34
338,435	562,51
338,641	685,39
338,848	423,25
339,054	582,99
339,261	537,93
339,467	636,24
339,674	470,35
339,88	476,49
340,087	376,14
340,293	925
340,5	464,21
340,706	433,49
340,912	494,93
341,119	802,12
341,325	666,96
341,532	509,26
341,738	503,12
341,944	644,43
342,151	687,43
342,357	650,57
342,563	638,28
342,77	552,27
342,976	648,52
343,182	458,06
343,389	728,39
343,595	812,36
343,801	771,4
344,007	533,84
344,214	703,82
344,42	658,76
344,626	494,93
344,832	513,36
345,039	361,81
345,245	681,29
345,451	752,97
345,657	632,14
345,864	677,2
346,07	718,15
346,276	697,67
346,482	585,04
346,688	630,09
346,894	660,81
347,1	568,65
347,307	488,78
347,513	615,76
347,719	675,15
347,925	673,1
348,131	507,21
348,337	572,75
348,543	771,4
348,749	689,48
348,955	582,99
349,161	505,17
349,367	681,29
349,573	709,96
349,779	617,8
349,985	550,22
350,191	734,54
350,397	595,28
350,603	574,8
350,809	605,52
351,015	804,17
351,221	769,35
351,427	613,71
351,633	654,67
351,839	740,68
352,045	783,69
352,251	611,66
352,457	509,26
352,663	546,13
352,869	722,25
353,075	578,89
353,28	611,66
353,486	695,63
353,692	546,13
353,898	656,72
354,104	421,2
354,31	634,19
354,515	818,5
354,721	695,63
354,927	591,18
355,133	685,39
355,339	759,11
355,544	748,87
355,75	699,72
355,956	939,34
356,162	881,99
356,367	830,79
356,573	929,1
356,779	851,27
356,984	900,42
357,19	888,14
357,396	781,64
357,602	974,15
357,807	918,86
358,013	922,95
358,218	865,61
358,424	1203,52
358,63	1174,85
358,835	1068,36
359,041	1037,64
359,247	1062,21
359,452	1047,88
359,658	857,42
359,863	914,76
360,069	984,39
360,274	728,39
360,48	865,61
360,685	783,69
360,891	886,09
361,097	752,97
361,302	640,33
361,508	728,39
361,713	888,14
361,918	687,43
362,124	795,98
362,329	832,84
362,535	822,6
362,74	867,66
362,946	779,59
363,151	589,13
363,357	951,62
363,562	1215,81
363,767	795,98
363,973	746,83
364,178	1074,5
364,383	998,73
364,589	779,59
364,794	830,79
365	1125,7
365,205	1047,88
365,41	791,88
365,615	726,35
365,821	1092,93
366,026	978,25
366,231	851,27
366,437	1000,77
366,642	951,62
366,847	931,14
367,052	757,07
367,258	773,45
367,463	863,56
367,668	904,52
367,873	761,16
368,078	673,1
368,284	875,85
368,489	996,68
368,694	810,31
368,899	664,91
369,104	777,55
369,309	886,09
369,515	730,44
369,72	722,25
369,925	1043,78
370,13	849,22
370,335	730,44
370,54	777,55
370,745	738,63
370,95	922,95
371,155	765,26
371,36	720,2
371,565	935,24
371,77	925
371,975	851,27
372,18	793,93
372,385	959,81
372,59	898,38
372,795	879,94
373	726,35
373,205	759,11
373,41	1060,17
373,615	789,83
373,82	638,28
374,025	884,04
374,23	959,81
374,435	724,3
374,64	718,15
374,845	953,67
375,05	965,96
375,254	869,7
375,459	836,94
375,664	982,34
375,869	955,72
376,074	843,08
376,279	683,34
376,483	775,5
376,688	920,9
376,893	693,58
377,098	929,1
377,303	841,03
377,507	931,14
377,712	853,32
377,917	765,26
378,122	898,38
378,326	953,67
378,531	877,9
378,736	849,22
378,94	996,68
379,145	1037,64
379,35	748,87
379,554	742,73
379,759	974,15
379,964	951,62
380,168	890,18
380,373	687,43
380,578	712,01
380,782	1209,67
380,987	755,02
381,191	783,69
381,396	912,71
381,601	898,38
381,805	705,87
382,01	724,3
382,214	900,42
382,419	1148,23
382,623	808,27
382,828	650,57
383,032	1080,64
383,237	943,43
383,441	779,59
383,646	826,7
383,85	1023,3
384,055	865,61
384,259	814,41
384,464	830,79
384,668	1019,21
384,872	933,19
385,077	814,41
385,281	838,98
385,486	1082,69
385,69	1041,73
385,894	726,35
386,099	961,86
386,303	986,44
386,507	881,99
386,712	593,23
386,916	800,07
387,12	1035,59
387,325	990,53
387,529	841,03
387,733	765,26
387,937	978,25
388,142	1045,83
388,346	910,66
388,55	716,11
388,754	1086,79
388,959	1148,23
389,163	748,87
389,367	877,9
389,571	998,73
389,775	968,01
389,98	673,1
390,184	785,74
390,388	935,24
390,592	978,25
390,796	687,43
391	879,94
391,204	980,29
391,409	1049,93
391,613	902,47
391,817	863,56
392,021	1049,93
392,225	1144,13
392,429	922,95
392,633	857,42
392,837	1150,28
393,041	1133,89
393,245	918,86
393,449	986,44
393,653	1295,68
393,857	1183,04
394,061	1035,59
394,265	1176,9
394,469	1338,69
394,673	1293,63
394,877	1242,43
395,081	1142,08
395,285	1006,92
395,489	1267,01
395,693	861,51
395,896	929,1
396,1	908,62
396,304	861,51
396,508	759,11
396,712	732,49
396,916	972,1
397,12	871,75
397,323	691,53
397,527	726,35
397,731	998,73
397,935	961,86
398,139	929,1
398,342	836,94
398,546	1314,11
398,75	902,47
398,954	861,51
399,157	748,87
399,361	947,53
399,565	933,19
399,769	845,13
399,972	726,35
400,176	939,34
400,38	879,94
400,583	838,98
400,787	959,81
400,991	1088,84
401,194	916,81
401,398	951,62
401,601	920,9
401,805	1242,43
402,009	1203,52
402,212	1008,97
402,416	1037,64
402,619	1111,36
402,823	1197,38
403,026	1105,22
403,23	1357,12
403,433	1588,54
403,637	1957,18
403,841	1838,39
404,044	2131,25
404,247	2385,2
404,451	2053,43
404,654	1799,48
404,858	1664,32
405,061	1682,75
405,265	1596,73
405,468	1279,3
405,672	1086,79
405,875	949,57
406,078	1066,31
406,282	976,2
406,485	916,81
406,689	1213,76
406,892	1203,52
407,095	1019,21
407,299	998,73
407,502	1414,46
407,705	1174,85
407,909	933,19
408,112	1060,17
408,315	1291,59
408,518	1361,22
408,722	1166,66
408,925	1146,18
409,128	1561,92
409,331	1498,43
409,535	1078,6
409,738	1107,27
409,941	1197,38
410,144	1101,12
410,347	1031,49
410,551	884,04
410,754	1373,5
410,957	1013,06
411,16	798,03
411,363	906,57
411,566	1215,81
411,769	1211,71
411,973	949,57
412,176	1072,45
412,379	1348,93
412,582	1084,74
412,785	902,47
412,988	968,01
413,191	1148,23
413,394	1322,31
413,597	1056,07
413,8	1166,66
414,003	1414,46
414,206	1695,04
414,409	1877,3
414,612	2325,81
414,815	3089,7
415,018	3548,45
415,221	3675,42
415,424	3947,8
415,627	3912,99
415,83	3861,79
416,033	3218,72
416,235	3099,94
416,438	2845,99
416,641	2520,37
416,844	2164,02
417,047	2012,47
417,25	1979,7
417,453	2313,52
417,655	1979,7
417,858	2180,4
418,061	2540,85
418,264	2956,58
418,467	3161,38
418,669	3622,17
418,872	4218,13
419,075	5041,42
419,278	5004,55
419,48	5106,95
419,683	5211,4
419,886	4709,65
420,089	4271,38
420,291	3593,5
420,494	3302,69
420,697	2583,85
420,899	2037,05
421,102	1615,16
421,305	1641,79
421,507	1490,24
421,71	1271,11
421,912	1090,88
422,115	1332,55
422,318	1480
422,52	1183,04
422,723	998,73
422,925	1310,02
423,128	1164,61
423,33	1148,23
423,533	1156,42
423,735	1287,49
423,938	1582,4
424,14	1299,78
424,343	1482,05
424,545	1889,59
424,748	1905,98
424,95	1991,99
425,153	2213,17
425,355	2721,07
425,558	3026,22
425,76	2723,12
425,962	2731,31
426,165	3073,32
426,367	3216,68
426,57	2970,92
426,772	2858,28
426,974	2856,23
427,177	2630,96
427,379	2114,87
427,581	1983,8
427,784	2024,76
427,986	1768,76
428,188	1580,35
428,39	1486,14
428,593	1789,24
428,795	1860,92
428,997	1744,19
429,2	1723,71
429,402	2141,49
429,604	2176,31
429,806	1783,1
430,008	2028,85
430,211	1805,63
430,413	1830,2
430,615	1471,81
430,817	1527,1
431,019	1609,02
431,221	1457,47
431,423	1281,35
431,626	1350,98
431,828	1721,66
432,03	1918,26
432,232	1776,95
432,434	1975,61
432,636	2561,33
432,838	2577,71
433,04	2544,94
433,242	2307,38
433,444	2303,28
433,646	2413,87
433,848	2139,44
434,05	2157,88
434,252	2565,42
434,454	2774,32
434,656	3061,03
434,858	3171,62
435,06	3601,69
435,262	3622,17
435,464	3523,87
435,666	2798,89
435,868	2659,63
436,07	2510,13
436,271	2024,76
436,473	1791,29
436,675	1746,23
436,877	1684,8
437,079	1580,35
437,281	1498,43
437,482	1680,7
437,684	1654,08
437,886	1350,98
438,088	1461,57
438,29	1570,11
438,491	1625,4
438,693	1451,33
438,895	1299,78
439,097	1735,99
439,298	1553,73
439,5	1303,87
439,702	1391,94
439,903	1428,8
440,105	1561,92
440,307	1281,35
440,508	1328,45
440,71	1584,45
440,912	1537,34
441,113	1338,69
441,315	1224
441,517	1572,16
441,718	1283,39
441,92	1371,46
442,121	1312,07
442,323	1566,01
442,524	1480
442,726	1410,37
442,928	1283,39
443,129	1574,21
443,331	1631,55
443,532	1328,45
443,734	1355,07
443,935	1494,33
444,136	1623,36
444,338	1410,37
444,539	1375,55
444,741	1635,64
444,942	1535,29
445,144	1316,16
445,345	1398,08
445,546	1566,01
445,748	1518,91
445,949	1295,68
446,151	1338,69
446,352	1561,92
446,553	1547,58
446,755	1310,02
446,956	1561,92
447,157	1584,45
447,359	1553,73
447,56	1426,75
447,761	1572,16
447,962	1633,6
448,164	1733,95
448,365	1535,29
448,566	1594,69
448,767	1797,43
448,969	1817,91
449,17	1520,96
449,371	1604,92
449,572	1897,78
449,773	2041,14
449,974	1879,35
450,176	1844,54
450,377	2088,25
450,578	1883,45
450,779	1869,11
450,98	1895,74
451,181	2141,49
451,382	1877,3
451,583	1647,93
451,784	1762,62
451,986	2047,29
452,187	1699,13
452,388	1584,45
452,589	1580,35
452,79	1760,57
452,991	1959,22
453,192	1707,32
453,393	1826,11
453,594	2159,92
453,795	2477,36
453,995	2657,58
454,196	2837,8
454,397	3622,17
454,598	3812,64
454,799	3824,92
455	3654,94
455,201	3759,39
455,402	3319,07
455,603	2948,39
455,804	2889
456,004	2776,36
456,205	2362,67
456,406	2073,91
456,607	1783,1
456,808	2041,14
457,008	1889,59
457,209	1668,41
457,41	1598,78
457,611	1774,91
457,811	1512,77
458,012	1656,12
458,213	1719,61
458,414	1977,66
458,614	1942,84
458,815	1914,17
459,016	1705,28
459,216	2039,09
459,417	1938,74
459,618	2032,95
459,818	1836,35
460,019	1899,83
460,22	1887,54
460,42	1578,3
460,621	1543,49
460,821	1791,29
461,022	1746,23
461,223	1609,02
461,423	1686,84
461,624	1871,16
461,824	1883,45
462,025	1645,88
462,225	1670,46
462,426	1908,02
462,626	1801,53
462,827	1615,16
463,027	1641,79
463,228	1881,4
463,428	1715,52
463,628	1717,56
463,829	1619,26
464,029	1891,64
464,23	2084,15
464,43	1672,51
464,63	1678,65
464,831	2041,14
465,031	2159,92
465,231	2106,68
465,432	2290,99
465,632	2440,5
465,832	2827,56
466,033	2592,05
466,233	2745,64
466,433	2639,15
466,634	2913,58
466,834	2374,96
467,034	2297,14
467,234	2493,74
467,435	2258,23
467,635	2039,09
467,835	1819,96
468,035	2010,42
468,235	2039,09
468,436	1805,63
468,636	1860,92
468,836	2010,42
469,036	2043,19
469,236	1932,6
469,436	1893,69
469,636	1989,94
469,836	2135,35
470,037	1951,03
470,237	1981,75
470,437	2061,62
470,637	2186,55
470,837	1809,72
471,037	1842,49
471,237	1852,73
471,437	1842,49
471,637	1744,19
471,837	1768,76
472,037	2016,57
472,237	1955,13
472,437	1856,83
472,637	1918,26
472,837	2127,16
473,036	2000,18
473,236	1783,1
473,436	1967,42
473,636	2344,24
473,836	2297,14
474,036	2182,45
474,236	2276,66
474,436	2583,85
474,635	2340,15
474,835	2270,51
475,035	2293,04
475,235	2524,46
475,435	2444,59
475,634	2293,04
475,834	2164,02
476,034	2346,29
476,234	2409,78
476,433	2121,01
476,633	2067,77
476,833	2237,75
477,033	2252,08
477,232	2045,24
477,432	2080,05
477,632	2174,26
477,831	2282,8
478,031	2022,71
478,231	1895,74
478,43	2377,01
478,63	2090,29
478,829	2151,73
479,029	1994,04
479,229	2305,33
479,428	2223,41
479,628	2180,4
479,827	2100,53
480,027	2284,85
480,226	2200,88
480,426	2282,8
480,625	2100,53
480,825	2397,49
481,024	2245,94
481,224	2258,23
481,423	2186,55
481,623	2528,56
481,822	2301,23
482,021	2420,02
482,221	2399,54
482,42	2598,19
482,62	2686,25
482,819	2473,26
483,018	2610,48
483,218	2741,55
483,417	2856,23
483,616	2719,02
483,816	2454,83
484,015	2985,26
484,214	2962,73
484,414	2743,6
484,613	2776,36
484,812	3181,86
485,011	3200,29
485,211	2876,71
485,41	3013,93
485,609	3257,64
485,808	3183,91
486,008	3224,87
486,207	3263,78
486,406	3523,87
486,605	3403,04
486,804	3265,83
487,003	3425,57
487,203	3890,46
487,402	3876,12
487,601	3718,43
487,8	3743
487,999	4072,73
488,198	3843,35
488,397	3749,15
488,596	3646,75
488,795	3681,57
488,994	3839,26
489,193	3405,09
489,392	3491,1
489,591	3532,06
489,79	3415,33
489,989	3292,45
490,188	3054,89
490,387	3499,3
490,586	3394,85
490,785	3216,68
490,984	3155,24
491,183	3538,21
491,382	3456,29
491,581	3716,38
491,779	4078,87
491,978	5088,52
492,177	5463,3
492,376	5809,4
492,575	5893,37
492,774	6485,23
492,972	6403,32
493,171	5580,03
493,37	5242,12
493,569	5037,32
493,768	4648,21
493,966	4142,36
494,165	3927,32
494,364	4011,29
494,563	3843,35
494,761	3499,3
494,96	3192,1
495,159	3652,89
495,357	3517,73
495,556	3513,63
495,755	3915,03
495,953	4891,91
496,152	5879,04
496,35	7595,23
496,549	9766,08
496,748	12465,3
496,946	15045,74
497,145	16802,9
497,343	17466,44
497,542	17708,1
497,74	17062,99
497,939	15416,43
498,137	13407,37
498,336	11816,1
498,534	9977,02
498,733	8903,89
498,931	7771,36
499,13	6989,03
499,328	6167,8
499,527	5229,83
499,725	4381,97
499,924	4146,45
500,122	3478,82
500,32	3036,46
500,519	2884,91
500,717	3058,98
500,915	2936,1
501,114	2497,84
501,312	2391,34
501,51	2690,35
501,709	2835,75
501,907	2823,47
502,105	2678,06
502,304	2678,06
502,502	2901,29
502,7	2721,07
502,898	2540,85
503,097	3020,07
503,295	2815,27
503,493	2786,6
503,691	2450,74
503,889	2977,06
504,088	2923,82
504,286	2764,08
504,484	2811,18
504,682	2995,5
504,88	3376,42
505,078	3007,78
505,276	2987,3
505,474	3239,2
505,672	3161,38
505,871	2866,47
506,069	2721,07
506,267	2929,96
506,465	2882,86
506,663	2633,01
506,861	2579,76
507,059	2901,29
507,257	2823,47
507,455	2694,44
507,653	2751,79
507,851	2966,82
508,049	2751,79
508,246	2741,55
508,444	2499,89
508,642	2823,47
508,84	2741,55
509,038	2600,24
509,236	2719,02
509,434	2739,5
509,632	3052,84
509,829	2626,86
510,027	2680,11
510,225	3159,33
510,423	3069,22
510,621	2899,24
510,818	2823,47
511,016	3058,98
511,214	3110,18
511,412	2737,45
511,609	2831,66
511,807	2997,54
512,005	2872,62
512,203	2862,38
512,4	2790,7
512,598	3216,68
512,796	3300,64
512,993	3075,37
513,191	3671,33
513,389	4345,11
513,586	5080,33
513,784	5403,91
513,981	6288,63
514,179	6931,69
514,377	7367,91
514,574	7021,8
514,772	6960,36
514,969	6718,7
515,167	6130,94
515,364	5573,89
515,562	5223,69
515,759	4881,67
515,957	4572,43
516,154	4351,25
516,352	4029,72
516,549	3994,9
516,746	3771,68
516,944	3620,13
517,141	3546,4
517,339	3892,51
517,536	3708,19
517,733	3427,62
517,931	3550,5
518,128	3714,33
518,325	3634,46
518,523	3317,03
518,72	3351,84
518,917	3607,84
519,115	3501,34
519,312	3163,43
519,509	3276,07
519,707	3454,24
519,904	3409,19
520,101	3284,26
520,298	3190,05
520,495	3626,27
520,693	3628,32
520,89	3554,59
521,087	3491,1
521,284	3835,16
521,481	4019,48
521,678	3484,96
521,876	3484,96
522,073	3718,43
522,27	3607,84
522,467	3308,83
522,664	3527,97
522,861	3751,2
523,058	3478,82
523,255	3411,23
523,452	3366,18
523,649	3595,55
523,846	3669,28
524,043	3325,22
524,24	3337,51
524,437	3726,62
524,634	3656,99
524,831	3446,05
525,028	3308,83
525,225	3671,33
525,422	3450,14
525,619	3190,05
525,816	3253,54
526,013	3652,89
526,209	3417,38
526,406	3300,64
526,603	3224,87
526,8	3532,06
526,997	3444
527,194	3114,28
527,39	3226,92
527,587	3460,38
527,784	3513,63
527,981	3171,62
528,177	3126,57
528,374	3550,5
528,571	3198,24
528,768	3255,59
528,964	3177,76
529,161	3386,66
529,358	3464,48
529,554	3310,88
529,751	3319,07
529,948	3454,24
530,144	3396,9
530,341	3294,5
530,537	3360,03
530,734	3595,55
530,931	3579,17
531,127	3362,08
531,324	3581,21
531,52	3585,31
531,717	3718,43
531,913	3286,31
532,11	3241,25
532,306	3730,72
532,503	3525,92
532,699	3374,37
532,896	3417,38
533,092	3759,39
533,289	3622,17
533,485	3382,56
533,682	3224,87
533,878	3552,54
534,074	3513,63
534,271	3376,42
534,467	3343,65
534,664	3583,26
534,86	3521,82
535,056	3427,62
535,253	3376,42
535,449	3810,59
535,645	3687,71
535,841	3599,65
536,038	3489,06
536,234	3859,74
536,43	3964,18
536,626	3800,35
536,823	3732,76
537,019	4117,78
537,215	4271,38
537,411	4003,1
537,607	4259,09
537,804	4560,14
538	4644,11
538,196	4248,85
538,392	4330,77
538,588	4640,01
538,784	4705,55
538,98	4494,61
539,176	4625,68
539,373	5270,79
539,569	5375,24
539,765	5229,83
539,961	5471,49
540,157	5948,67
540,353	6122,74
540,549	6540,53
540,745	6860,01
540,941	7582,95
541,137	8010,97
541,333	7967,96
541,528	8228,06
541,724	8723,66
541,92	8725,71
542,116	8750,29
542,312	8950,99
542,508	9235,66
542,704	9161,93
542,9	8807,63
543,096	8862,93
543,291	9272,52
543,487	8897,74
543,683	9049,29
543,879	8967,37
544,075	9258,18
544,27	9438,41
544,466	9866,43
544,662	10013,88
544,858	10585,27
545,053	10411,19
545,249	9811,14
545,445	9266,38
545,64	8703,18
545,836	8203,48
546,032	7261,41
546,227	7054,57
546,423	6780,14
546,619	6642,93
546,814	6249,72
547,01	6106,36
547,205	6151,42
547,401	6108,41
547,597	5825,79
547,792	5899,52
547,988	6427,89
548,183	6575,35
548,379	6431,99
548,574	6411,51
548,77	6710,51
548,965	6685,94
549,161	6524,15
549,356	6264,05
549,552	6501,62
549,747	6192,37
549,942	5901,56
550,138	6073,59
550,333	6151,42
550,529	6219
550,724	6036,73
550,919	5887,23
551,115	6051,07
551,31	6044,92
551,505	5938,43
551,701	5647,62
551,896	5960,95
552,091	5870,84
552,287	6026,49
552,482	5778,69
552,677	6116,6
552,872	6046,97
553,067	5831,93
553,263	5604,61
553,458	5936,38
553,653	5844,22
553,848	5614,85
554,043	5782,78
554,239	6288,63
554,434	6446,32
554,629	6388,98
554,824	6270,2
555,019	6866,16
555,214	6673,65
555,409	6540,53
555,604	6573,3
555,799	7073
555,994	7040,23
556,189	6655,22
556,384	6941,93
556,579	7308,52
556,774	7154,92
556,969	7175,4
557,164	7103,72
557,359	7533,79
557,554	7808,22
557,749	7773,41
557,944	7879,9
558,139	8494,29
558,334	8645,84
558,529	8643,79
558,724	9080,01
558,918	9823,42
559,113	10288,31
559,308	10294,46
559,503	10824,88
559,698	11224,23
559,893	11680,93
560,087	11850,91
560,282	12303,51
560,477	12512,41
560,672	12874,9
560,866	13202,57
561,061	13438,09
561,256	14484,6
561,45	14857,33
561,645	14951,54
561,84	15883,36
562,034	16901,2
562,229	17210,45
562,424	18408,51
562,618	19213,36
562,813	20218,91
563,008	21257,23
563,202	22037,51
563,397	22813,69
563,591	23096,31
563,786	23450,61
563,98	23419,89
564,175	22873,08
564,369	23405,55
564,564	23254
564,758	22627,32
564,953	22725,63
565,147	23012,34
565,342	23342,07
565,536	23866,35
565,731	25482,19
565,925	29670,29
566,119	35066,69
566,314	45093,54
566,508	57831,91
566,703	62339,49
566,897	62624,15
567,091	63699,34
567,286	63615,37
567,48	63234,45
567,674	63269,26
567,868	63836,55
568,063	63777,16
568,257	63467,92
568,451	63613,32
568,646	63762,82
568,84	63676,81
569,034	63746,44
569,228	63523,21
569,422	63705,48
569,616	63764,87
569,811	63744,39
570,005	63302,03
570,199	63719,82
570,393	63691,15
570,587	63345,04
570,781	63660,43
570,975	63877,51
571,169	63752,58
571,364	63189,39
571,558	63304,08
571,752	63611,27
571,946	63771,02
572,14	63398,29
572,334	63388,05
572,528	63742,34
572,722	63705,48
572,916	63515,02
573,109	63316,37
573,303	63834,5
573,497	63834,5
573,691	63261,07
573,885	63496,59
574,079	63799,69
574,273	63807,88
574,467	63484,3
574,661	63611,27
574,854	63725,96
575,048	63711,63
575,242	63433,1
575,436	52347,45
575,63	37538,58
575,823	36334,38
576,017	37272,35
576,211	37364,51
576,405	37606,17
576,598	37958,42
576,792	38818,57
576,986	38929,16
577,18	39742,2
577,373	40284,91
577,567	41073,38
577,761	41769,69
577,954	42132,18
578,148	42420,94
578,341	43430,59
578,535	44161,72
578,729	44563,12
578,922	44886,7
579,116	46121,62
579,309	46520,98
579,503	47487,62
579,696	48509,55
579,89	49517,15
580,083	50225,75
580,277	51509,83
580,47	52957,74
580,664	56660,47
580,857	58900,95
581,051	61454,76
581,244	62310,81
581,437	63150,48
581,631	63197,58
581,824	63496,59
582,018	63465,87
582,211	63568,27
582,404	63467,92
582,598	63644,04
582,791	63457,68
582,984	63381,9
583,178	63056,28
583,371	63545,74
583,564	63576,46
583,757	63275,41
583,951	63146,39
584,144	63619,47
584,337	63455,63
584,53	63267,22
584,723	63555,98
584,917	63586,7
585,11	63611,27
585,303	63160,72
585,496	63066,51
585,689	63435,15
585,882	63539,6
586,075	63287,7
586,268	63447,44
586,462	63494,54
586,655	63445,39
586,848	63175,06
587,041	63414,67
587,234	63547,79
587,427	63390,09
587,62	63463,82
587,813	63447,44
588,006	63369,61
588,199	63535,5
588,392	63263,12
588,585	63392,14
588,777	63658,38
588,97	63646,09
589,163	63003,03
589,356	63127,95
589,549	63558,03
589,742	63685
589,935	63594,89
590,128	63521,16
590,32	63582,6
590,513	63596,94
590,706	63406,48
590,899	63662,47
591,092	63580,56
591,284	63680,91
591,477	63375,76
591,67	63336,85
591,863	63562,12
592,055	63744,39
592,248	63115,67
592,441	63308,18
592,633	63637,9
592,826	63623,56
593,019	63455,63
593,211	63234,45
593,404	63703,43
593,596	63664,52
593,789	63465,87
593,982	63373,71
594,174	63760,78
594,367	63715,72
594,559	63398,29
594,752	63734,15
594,944	63717,77
595,137	63662,47
595,329	63449,49
595,522	63377,81
595,714	63730,06
595,907	63596,94
596,099	63498,64
596,292	63562,12
596,484	63742,34
596,676	63713,67
596,869	63261,07
597,061	63105,43
597,253	63723,91
597,446	63703,43
597,638	63502,73
597,83	63463,82
598,023	63725,96
598,215	63873,41
598,407	63490,44
598,6	63709,58
598,792	63615,37
598,984	63644,04
599,176	63490,44
599,369	63279,5
599,561	63644,04
599,753	63814,02
599,945	63222,16
600,137	63611,27
600,329	63611,27
600,522	63783,3
600,714	63646,09
600,906	63693,19
601,098	63613,32
601,29	63830,41
601,482	63498,64
601,674	63465,87
601,866	63668,62
602,058	63734,15
602,25	63357,33
602,442	63226,26
602,634	63777,16
602,826	63723,91
603,018	63488,4
603,21	63326,61
603,402	63685
603,594	63775,11
603,786	63433,1
603,978	63203,73
604,17	63842,7
604,362	63699,34
604,554	63293,84
604,745	63332,75
604,937	63644,04
605,129	63674,76
605,321	63560,08
605,513	63547,79
605,704	63756,68
605,896	63615,37
606,088	63426,96
606,28	63506,83
606,471	63453,58
606,663	63701,39
606,855	63730,06
607,047	63394,19
607,238	63697,29
607,43	63590,79
607,622	63121,81
607,813	63390,09
608,005	63652,23
608,197	63400,33
608,388	63316,37
608,58	63394,19
608,771	63316,37
608,963	63375,76
609,154	63099,28
609,346	62902,68
609,537	62906,77
609,729	62857,62
609,921	62138,79
610,112	62247,33
610,303	62529,95
610,495	62675,35
610,686	62349,73
610,878	62865,81
611,069	63119,76
611,261	63003,03
611,452	63058,32
611,643	63017,36
611,835	63158,67
612,026	63201,68
612,217	62947,73
612,409	63160,72
612,6	63347,09
612,791	63353,23
612,983	63025,56
613,174	62828,95
613,365	63408,53
613,557	63373,71
613,748	63181,2
613,939	63080,85
614,13	63469,96
614,321	63549,84
614,513	62917,01
614,704	63064,47
614,895	63537,55
615,086	63629,71
615,277	63355,28
615,468	63424,91
615,659	63472,01
615,851	63717,77
616,042	63283,6
616,233	63295,89
616,424	63558,03
616,615	63482,25
616,806	63472,01
616,997	63652,23
617,188	63719,82
617,379	63578,51
617,57	63218,06
617,761	63271,31
617,952	63455,63
618,143	63490,44
618,334	63406,48
618,524	63353,23
618,715	63580,56
618,906	63762,82
619,097	63396,24
619,288	63707,53
619,479	63422,86
619,67	63609,23
619,86	63596,94
620,051	63349,13
620,242	63484,3
620,433	63613,32
620,624	63271,31
620,814	63332,75
621,005	63529,36
621,196	63521,16
621,386	63259,02
621,577	63349,13
621,768	63621,51
621,958	63627,66
622,149	63504,78
622,34	63406,48
622,53	63682,95
622,721	63611,27
622,912	63177,11
623,102	63357,33
623,293	63564,17
623,483	63621,51
623,674	63271,31
623,864	63451,53
624,055	63658,38
624,245	63603,08
624,436	63641,99
624,626	63553,93
624,817	63676,81
625,007	63758,73
625,198	63611,27
625,388	63467,92
625,579	63619,47
625,769	63680,91
625,959	63304,08
626,15	63326,61
626,34	63586,7
626,531	63457,68
626,721	63269,26
626,911	63615,37
627,101	63777,16
627,292	63719,82
627,482	63465,87
627,672	63472,01
627,863	63748,49
628,053	63418,77
628,243	63308,18
628,433	63713,67
628,623	63717,77
628,814	63783,3
629,004	63388,05
629,194	63517,07
629,384	63484,3
629,574	63680,91
629,764	63099,28
629,955	63232,4
630,145	63392,14
630,335	63574,41
630,525	63611,27
630,715	63285,65
630,905	63533,45
631,095	63693,19
631,285	63451,53
631,475	63615,37
631,665	63465,87
631,855	63768,97
632,045	63658,38
632,235	63605,13
632,425	63742,34
632,615	63850,89
632,805	63422,86
632,994	63539,6
633,184	63508,88
633,374	63738,25
633,564	63504,78
633,754	63480,2
633,944	63730,06
634,133	63740,3
634,323	63463,82
634,513	63457,68
634,703	63709,58
634,893	63779,21
635,082	63388,05
635,272	63578,51
635,462	63752,58
635,651	63674,76
635,841	63420,81
636,031	63588,75
636,221	63766,92
636,41	63814,02
636,6	63687,05
636,789	63435,15
636,979	63760,78
637,169	63701,39
637,358	63758,73
637,548	63455,63
637,737	63709,58
637,927	63783,3
638,116	63627,66
638,306	63584,65
638,495	63709,58
638,685	63830,41
638,874	63641,99
639,064	63457,68
639,253	63701,39
639,443	63707,53
639,632	63623,56
639,822	63685
640,011	63590,79
640,2	63672,71
640,39	63359,37
640,579	63418,77
640,768	63801,74
640,958	63777,16
641,147	63748,49
641,336	63613,32
641,526	63627,66
641,715	63693,19
641,904	63330,7
642,093	63701,39
642,283	63617,42
642,472	63615,37
642,661	63695,24
642,85	63349,13
643,039	63838,6
643,228	63625,61
643,418	63474,06
643,607	63465,87
643,796	63510,92
643,985	63742,34
644,174	63467,92
644,363	63383,95
644,552	63666,57
644,741	63773,06
644,93	63707,53
645,119	63400,33
645,308	63752,58
645,497	63631,75
645,686	63285,65
645,875	63646,09
646,064	63723,91
646,253	63721,86
646,442	63283,6
646,631	63664,52
646,82	63631,75
647,009	63689,1
647,198	63496,59
647,387	63685
647,575	63785,35
647,764	63447,44
647,953	63437,2
648,142	63439,25
648,331	63814,02
648,519	63734,15
648,708	63365,52
648,897	63545,74
649,086	63656,33
649,274	63746,44
649,463	63646,09
649,652	63107,47
649,84	63611,27
650,029	63594,89
650,218	63469,96
650,406	63426,96
650,595	63764,87
650,784	63635,85
650,972	63457,68
651,161	63490,44
651,349	63762,82
651,538	63553,93
651,726	63472,01
651,915	63410,57
652,104	63678,86
652,292	63801,74
652,481	63386
652,669	63130
652,857	63818,12
653,046	63699,34
653,234	63531,4
653,423	63252,88
653,611	63746,44
653,8	63771,02
653,988	63480,2
654,176	63654,28
654,365	63783,3
654,553	63549,84
654,741	63359,37
654,93	63578,51
655,118	63676,81
655,306	63685
655,494	63691,15
655,683	63605,13
655,871	63791,5
656,059	63646,09
656,247	63723,91
656,436	63494,54
656,624	63592,84
656,812	63744,39
657	63639,95
657,188	63259,02
657,376	63857,03
657,564	63537,55
657,753	63609,23
657,941	63703,43
658,129	63670,67
658,317	63709,58
658,505	63691,15
658,693	63623,56
658,881	63916,42
659,069	63621,51
659,257	63631,75
659,445	63455,63
659,633	63580,56
659,821	63775,11
660,009	63459,72
660,197	63654,28
660,384	63689,1
660,572	63713,67
660,76	63410,57
660,948	63484,3
661,136	63791,5
661,324	63734,15
661,512	63355,28
661,699	63646,09
661,887	63621,51
662,075	63549,84
662,263	63521,16
662,451	63568,27
662,638	63732,1
662,826	63787,4
663,014	63228,3
663,201	63426,96
663,389	63750,54
663,577	63658,38
663,764	63381,9
663,952	63670,67
664,14	63631,75
664,327	63730,06
664,515	63412,62
664,702	63429,01
664,89	63824,26
665,078	63826,31
665,265	63627,66
665,453	26403,78
665,64	63834,5
665,828	4119,83
666,015	63531,4
666,203	4916,49
666,39	63695,24
666,578	4574,48
666,765	12512,41
666,952	4869,39
667,14	4721,93
667,327	4388,11
667,515	4521,23
667,702	4463,89
667,889	4029,72
668,077	4109,59
668,264	4195,61
668,451	4054,3
668,638	3775,77
668,826	3824,92
669,013	4119,83
669,2	3869,98
669,388	3632,41
669,575	3560,73
669,762	3491,1
669,949	3714,33
670,136	7486,69
670,323	3228,96
670,511	3435,81
670,698	3558,69
670,885	3200,29
671,072	3296,55
671,259	3421,47
671,446	3505,44
671,633	3046,69
671,82	2985,26
672,007	3319,07
672,194	3210,53
672,381	3050,79
672,568	3058,98
672,755	3499,3
672,942	3472,67
673,129	3374,37
673,316	3489,06
673,503	4115,73
673,69	4269,33
673,877	4416,79
674,064	4662,54
674,251	4867,34
674,437	4971,79
674,624	4381,97
674,811	4381,97
674,998	4447,51
675,185	4197,65
675,372	3988,76
675,558	3570,97
675,745	3941,66
675,932	3888,41
676,119	3648,8
676,305	3398,95
676,492	3462,43
676,679	3515,68
676,865	3177,76
677,052	3118,37
677,239	3269,92
677,425	3224,87
677,612	2721,07
677,798	2747,69
677,985	3081,51
678,172	2825,51
678,358	2604,33
678,545	2436,4
678,731	2735,4
678,918	2774,32
679,104	2403,63
679,291	2454,83
679,477	2858,28
679,664	2633,01
679,85	2497,84
680,036	2516,27
680,223	2555,18
680,409	2770,22
680,596	2284,85
680,782	2450,74
680,968	2784,55
681,155	2661,68
681,341	2440,5
681,527	2303,28
681,714	2794,79
681,9	2637,1
682,086	2282,8
682,272	2229,56
682,459	2551,09
682,645	2553,13
682,831	2155,83
683,017	2329,91
683,204	2577,71
683,39	2606,38
683,576	2262,32
683,762	2284,85
683,948	2469,17
684,134	2319,67
684,32	2161,97
684,506	2182,45
684,693	2594,09
684,879	2731,31
685,065	2659,63
685,251	2745,64
685,437	3319,07
685,623	3503,39
685,809	3661,09
685,995	3523,87
686,181	3702,04
686,366	3996,95
686,552	3427,62
686,738	3362,08
686,924	3601,69
687,11	3487,01
687,296	3087,65
687,482	3028,26
687,668	3380,51
687,853	3247,4
688,039	2721,07
688,225	2768,17
688,411	3061,03
688,597	3036,45
688,782	2518,32
688,968	2391,34
689,154	2616,62
689,34	2784,55
689,525	2432,3
689,711	2188,6
689,897	2401,58
690,082	2680,11
690,268	2268,47
690,454	2217,27
690,639	2422,06
690,825	2592,05
691,01	2168,12
691,196	2215,22
691,381	2465,07
691,567	2487,6
691,753	2391,34
691,938	2403,63
692,124	2868,52
692,309	3034,41
692,494	2759,98
692,68	2817,32
692,865	3065,13
693,051	3061,03
693,236	2737,45
693,422	2856,23
693,607	3435,81
693,792	4138,26
693,978	7083,24
694,163	15893,6
694,348	29031,32
694,534	47078,02
694,719	61364,65
694,904	61710,76
695,089	62945,68
695,275	63132,05
695,46	63918,47
695,645	63666,57
695,83	63644,04
696,016	63678,86
696,201	63795,59
696,386	63762,82
696,571	63439,25
696,756	63670,67
696,941	63736,2
697,126	63930,76
697,311	63644,04
697,497	63408,53
697,682	63701,39
697,867	63680,91
698,052	63482,25
698,237	63195,54
698,422	63705,48
698,607	60506,55
698,792	27073,46
698,977	6331,64
699,162	4691,21
699,347	3734,81
699,531	3654,94
699,716	3126,57
699,901	2377,01
700,086	2305,33
700,271	2635,05
700,456	2700,59
700,641	2235,7
700,825	2366,77
701,01	2815,27
701,195	3005,74
701,38	2829,61
701,565	3202,34
701,749	3607,84
701,934	3585,31
702,119	3159,33
702,303	3073,32
702,488	3278,12
702,673	3364,13
702,857	2852,14
703,042	2776,36
703,227	3163,43
703,411	2829,61
703,596	2729,26
703,78	2800,94
703,965	3372,32
704,15	5328,13
704,334	10198,2
704,519	17908,8
704,703	29651,86
704,888	41822,94
705,072	52742,7
705,257	60205,5
705,441	61839,78
705,625	61551,02
705,81	63439,25
705,994	63564,17
706,179	63390,09
706,363	63472,01
706,547	63711,63
706,732	55550,47
706,916	45468,32
707,1	38105,87
707,285	34138,96
707,469	30155,66
707,653	26880,96
707,837	23370,74
708,022	17851,46
708,206	13683,84
708,39	10226,87
708,574	7541,99
708,759	5381,38
708,943	4300,05
709,127	3855,64
709,311	3458,34
709,495	2682,16
709,679	2532,65
709,863	2659,63
710,047	2778,41
710,231	2196,79
710,415	2129,2
710,6	2495,79
710,784	2377,01
710,968	2258,23
711,152	2067,77
711,336	2370,87
711,519	2356,53
711,703	2039,09
711,887	2037,05
712,071	2387,25
712,255	2755,88
712,439	3075,37
712,623	4115,73
712,807	5848,32
712,991	6905,07
713,174	7775,45
713,358	9147,59
713,542	9510,08
713,726	9473,22
713,91	8795,34
714,093	8455,38
714,277	8142,04
714,461	7466,21
714,645	6749,42
714,828	6167,8
715,012	6046,97
715,196	5475,59
715,379	4541,71
715,563	3867,93
715,747	3802,4
715,93	3226,92
716,114	2606,38
716,297	2270,51
716,481	2325,81
716,664	2198,84
716,848	1676,6
717,031	1740,09
717,215	1938,74
717,398	2010,42
717,582	1678,65
717,765	1588,54
717,949	1811,77
718,132	2018,61
718,316	1611,07
718,499	1779
718,682	2166,07
718,866	2141,49
719,049	1729,85
719,233	1754,43
719,416	2420,02
719,599	2192,69
719,782	1824,06
719,966	1881,4
720,149	1973,56
720,332	2010,42
720,515	1635,64
720,699	1725,76
720,882	2043,19
721,065	2071,86
721,248	1678,65
721,431	1570,11
721,615	1912,12
721,798	1936,7
721,981	1443,14
722,164	1576,25
722,347	1836,35
722,53	1750,33
722,713	1422,66
722,896	1404,22
723,079	1916,22
723,262	1838,39
723,445	1393,98
723,628	1520,96
723,811	1869,11
723,994	1809,72
724,177	1533,25
724,36	1465,66
724,543	2086,2
724,726	2737,45
724,909	4494,61
725,091	7474,4
725,274	11728,03
725,457	16323,68
725,64	20151,33
725,823	23907,3
726,006	26508,22
726,188	27294,64
726,371	26883
726,554	25256,92
726,737	24620
726,919	22338,56
727,102	20513,82
727,285	18310,21
727,467	16399,45
727,65	13667,46
727,833	10775,73
728,015	8320,21
728,198	6575,34
728,38	5065,99
728,563	3616,03
728,746	2923,82
728,928	2794,79
729,111	2544,94
729,293	2106,68
729,476	2145,59
729,658	2272,56
729,841	2260,27
730,023	1889,59
730,205	1854,78
730,388	2161,97
730,57	2325,81
730,753	1834,3
730,935	1987,9
731,117	2254,13
731,3	2004,28
731,482	1912,12
731,664	1893,69
731,847	2024,76
732,029	2016,57
732,211	1715,52
732,394	1697,08
732,576	1951,03
732,758	1989,94
732,94	1692,99
733,122	1776,95
733,305	2442,54
733,487	2321,71
733,669	2176,31
733,851	2180,4
734,033	2721,07
734,215	2639,15
734,397	2387,25
734,58	2444,59
734,762	2800,94
734,944	2934,06
735,126	2661,68
735,308	3224,87
735,49	3845,4
735,672	4830,48
735,854	8375,51
736,036	18428,99
736,218	33114,97
736,399	52183,61
736,581	61532,59
736,763	61524,39
736,945	62771,61
737,127	63019,41
737,309	63676,81
737,491	63676,81
737,672	63584,65
737,854	63447,44
738,036	63609,23
738,218	63748,49
738,4	63824,26
738,581	63435,15
738,763	63783,3
738,945	63846,79
739,127	63517,07
739,308	63447,44
739,49	63650,19
739,672	63771,02
739,853	63390,09
740,035	38419,21
740,216	4783,37
740,398	3425,57
740,58	3386,66
740,761	3267,88
740,943	2741,55
741,124	2538,8
741,306	2802,99
741,487	2762,03
741,669	2491,7
741,85	2493,74
742,032	2817,32
742,213	2821,42
742,394	2401,58
742,576	2448,69
742,757	2864,43
742,939	2561,33
743,12	2239,8
743,301	2137,4
743,483	2444,59
743,664	2340,15
743,845	2121,01
744,027	1946,94
744,208	2250,03
744,389	2321,71
744,57	2082,1
744,752	1932,6
744,933	2366,77
745,114	2368,82
745,295	2102,58
745,476	2082,1
745,657	2555,18
745,839	2428,21
746,02	2153,78
746,201	2403,63
746,382	2590
746,563	2555,18
746,744	2080,05
746,925	2338,1
747,106	2845,99
747,287	2831,66
747,468	2811,18
747,649	3450,14
747,83	6665,46
748,011	13935,74
748,192	26074,06
748,373	41140,96
748,554	56875,51
748,735	61204,91
748,915	62101,92
749,096	63109,52
749,277	63113,62
749,458	63295,89
749,639	63779,21
749,82	63734,15
750	63715,72
750,181	63365,52
750,362	63850,89
750,543	63639,95
750,723	63469,96
750,904	63558,03
751,085	63785,35
751,265	63762,82
751,446	63568,27
751,627	63594,89
751,807	63725,96
751,988	63758,73
752,169	63457,68
752,349	63609,23
752,53	63807,88
752,71	63807,88
752,891	63218,06
753,071	63474,06
753,252	63889,8
753,432	63848,84
753,613	63537,55
753,793	63500,68
753,974	63836,55
754,154	63156,63
754,334	29006,75
754,515	3466,53
754,695	2829,61
754,876	2659,63
755,056	2622,77
755,236	2821,42
755,417	2575,66
755,597	2460,98
755,777	2671,92
755,957	2745,64
756,138	2393,39
756,318	2329,91
756,498	2794,79
756,678	2805,03
756,859	2649,39
757,039	2467,12
757,219	2966,82
757,399	2968,87
757,579	2460,98
757,759	2665,77
757,939	2788,65
758,119	2868,52
758,3	2546,99
758,48	2534,7
758,66	2866,47
758,84	2866,47
759,02	2714,92
759,2	2688,3
759,38	2993,45
759,56	3317,03
759,74	3040,55
759,919	3147,05
760,099	3935,51
760,279	4162,84
760,459	4240,66
760,639	5496,07
760,819	11498,66
760,999	31570,8
761,178	61612,46
761,358	61368,75
761,538	63349,13
761,718	62943,64
761,898	63789,45
762,077	63713,67
762,257	63414,67
762,437	63449,49
762,616	63787,4
762,796	63764,87
762,976	63496,59
763,155	63566,22
763,335	63881,61
763,515	63783,3
763,694	63367,57
763,874	63619,47
764,053	63685
764,233	63709,58
764,413	63562,12
764,592	63406,48
764,772	63531,4
764,951	63795,59
765,131	63578,51
765,31	63439,25
765,489	63662,47
765,669	63850,89
765,848	63392,14
766,028	63691,15
766,207	63811,98
766,386	63756,68
766,566	63723,91
766,745	63553,93
766,924	63621,51
767,104	63754,63
767,283	63687,05
767,462	63340,94
767,642	63766,92
767,821	63836,55
768	63822,22
768,179	63549,84
768,358	63670,67
768,538	63762,82
768,717	63539,6
768,896	63545,74
769,075	63648,14
769,254	63881,61
769,433	63498,64
769,612	63402,38
769,791	63897,99
769,97	63807,88
770,149	63480,2
770,328	63730,06
770,507	63736,2
770,686	63914,37
770,865	63406,48
771,044	63594,89
771,223	63910,28
771,402	63771,02
771,581	63474,06
771,76	63717,77
771,939	63648,14
772,118	63836,55
772,297	63490,44
772,475	63562,12
772,654	63672,71
772,833	63848,84
773,012	63177,11
773,191	63342,99
773,369	63709,58
773,548	63689,1
773,727	63875,46
773,906	63211,92
774,084	63728,01
774,263	63809,93
774,442	63594,89
774,62	63656,33
774,799	63807,88
774,977	63615,37
775,156	63373,71
775,335	63422,86
775,513	63789,45
775,692	63887,75
775,87	63058,32
776,049	63598,99
776,227	63781,26
776,406	63803,78
776,584	63613,32
776,763	63342,99
776,941	63928,71
777,119	63795,59
777,298	63746,44
777,476	63271,31
777,655	63867,27
777,833	63897,99
778,011	63326,61
778,19	63424,91
778,368	63725,96
778,546	63824,26
778,725	63246,74
778,903	63627,66
779,081	63797,64
779,259	63881,61
779,437	63562,12
779,616	63582,6
779,794	63758,73
779,972	63869,32
780,15	63588,75
780,328	63496,59
780,506	63717,77
780,685	63809,93
780,863	63627,66
781,041	63760,78
781,219	63773,06
781,397	63703,43
781,575	63463,82
781,753	63590,79
781,931	63775,11
782,109	63840,65
782,287	41304,8
782,465	59521,48
782,643	1398,08
782,82	1436,99
782,998	1869,11
783,176	1631,55
783,354	1391,94
783,532	1461,57
783,71	1725,76
783,888	1559,87
784,065	1201,48
784,243	1322,31
784,421	1803,58
784,599	1654,08
784,776	1291,59
784,954	1320,26
785,132	1617,21
785,31	1451,33
785,487	1187,14
785,665	1217,86
785,842	1699,13
786,02	1441,09
786,198	1350,98
786,375	1363,26
786,553	1680,7
786,73	1537,34
786,908	1248,58
787,085	1391,94
787,263	1725,76
787,44	1803,58
787,618	1480
787,795	1467,71
787,973	1703,23
788,15	1891,64
788,328	1328,45
788,505	1324,35
788,682	1725,76
788,86	1748,28
789,037	1457,47
789,215	1336,64
789,392	1822,01
789,569	1932,6
789,746	1432,9
789,924	1389,89
790,101	1822,01
790,278	1797,43
790,455	1582,4
790,633	1639,74
790,81	1883,45
790,987	1768,76
791,164	1715,52
791,341	1598,78
791,518	1932,6
791,695	2161,97
791,873	1905,98
792,05	2405,68
792,227	5309,7
792,404	11488,42
792,581	21267,47
792,758	35760,95
792,935	50109,02
793,112	58894,8
793,289	61381,04
793,466	61868,45
793,643	62990,74
793,82	63232,4
793,996	63783,3
794,173	62159,26
794,35	51989,05
794,527	39543,55
794,704	34624,32
794,881	30819,2
795,057	27411,38
795,234	21419,02
795,411	15791,2
795,588	11351,21
795,765	8447,19
795,941	6300,92
796,118	4476,18
796,295	3802,4
796,471	3487,01
796,648	3067,17
796,825	2659,63
797,001	2471,22
797,178	2698,54
797,354	2856,23
797,531	2344,24
797,708	2379,06
797,884	3353,89
798,061	5020,94
798,237	8729,81
798,414	15211,63
798,59	23933,93
798,767	32408,42
798,943	41587,42
799,119	52939,31
799,296	61004,21
799,472	61147,57
799,649	63054,23
799,825	62878,1
800,001	63656,33
800,178	63750,54
800,354	63766,92
800,53	63799,69
800,707	63760,78
800,883	63680,91
801,059	63865,22
801,235	63431,05
801,411	63648,14
801,588	63779,21
801,764	63656,33
801,94	59908,55
802,116	31568,76
802,292	12864,66
802,468	8950,99
802,645	6647,02
802,821	5317,89
802,997	4547,86
803,173	3345,7
803,349	3149,09
803,525	3110,18
803,701	2856,23
803,877	2551,09
804,053	2303,28
804,229	2731,31
804,405	2565,42
804,581	2092,34
804,756	2090,29
804,932	2204,98
805,108	2221,36
805,284	1901,88
805,46	2032,95
805,636	2491,7
805,812	2334
805,987	1989,94
806,163	1973,56
806,339	4357,39
806,515	2309,43
806,69	2202,93
806,866	2110,77
807,042	2725,16
807,217	2929,96
807,393	2796,84
807,569	3597,6
807,744	7007,47
807,92	13700,23
808,096	25351,12
808,271	40772,33
808,447	55732,74
808,622	60889,52
808,798	61600,17
808,973	62785,94
809,149	62888,34
809,324	63338,89
809,5	63797,64
809,675	63820,17
809,851	63553,93
810,026	63488,4
810,201	63719,82
810,377	63834,5
810,552	63627,66
810,728	63455,63
810,903	63793,54
811,078	63844,74
811,253	63402,38
811,429	63840,65
811,604	63959,43
811,779	63824,26
811,955	63529,36
812,13	63560,08
812,305	63750,54
812,48	63799,69
812,655	63238,54
812,83	63304,08
813,006	63807,88
813,181	63793,54
813,356	63740,3
813,531	63799,69
813,706	63777,16
813,881	63887,75
814,056	63652,23
814,231	63367,57
814,406	63793,54
814,581	64004,48
814,756	63539,6
814,931	63531,4
815,106	63807,88
815,281	63797,64
815,456	63328,65
815,631	63549,84
815,805	63883,65
815,98	63818,12
816,155	63588,75
816,33	63596,94
816,505	63811,98
816,68	63844,74
816,854	63672,71
817,029	63562,12
817,204	63801,74
817,379	63793,54
817,553	63386
817,728	63656,33
817,903	63826,31
818,077	63728,01
818,252	63572,36
818,427	63410,57
818,601	63797,64
818,776	63828,36
818,95	63685
819,125	63357,33
819,299	63824,26
819,474	63715,72
819,648	63566,22
819,823	63285,65
819,997	63752,58
820,172	63918,47
820,346	63502,73
820,521	63496,59
820,695	63836,55
820,87	63875,46
821,044	63617,42
821,218	63576,46
821,393	63664,52
821,567	63949,19
821,741	63586,7
821,916	63617,42
822,09	63721,86
822,264	63889,8
822,438	63732,1
822,613	63598,99
822,787	63728,01
822,961	63875,46
823,135	63373,71
823,309	63623,56
823,483	63850,89
823,658	63803,78
823,832	63328,65
824,006	63863,17
824,18	63832,46
824,354	63857,03
824,528	63572,36
824,702	63383,95
824,876	63867,27
825,05	63725,96
825,224	63488,4
825,398	63373,71
825,572	63900,04
825,746	63848,84
825,92	63218,06
826,093	63543,69
826,267	63736,2
826,441	63900,04
826,615	63336,85
826,789	63326,61
826,963	63799,69
827,136	63791,5
827,31	63551,88
827,484	63785,35
827,658	63904,13
827,831	63836,55
828,005	63613,32
828,179	63783,3
828,353	63756,68
828,526	63850,89
828,7	43098,82
828,873	4437,27
829,047	1600,83
829,221	1424,7
829,394	1654,08
829,568	1668,41
829,741	1299,78
829,915	1221,95
830,088	1410,37
830,262	1578,3
830,435	1135,94
830,609	1078,6
830,782	1312,07
830,956	1363,26
831,129	1086,79
831,302	986,44
831,476	1336,64
831,649	1246,53
831,822	886,09
831,996	798,03
832,169	1260,87
832,342	1195,33
832,516	896,33
832,689	906,57
832,862	1113,41
833,035	1238,34
833,209	845,13
833,382	757,07
833,555	1097,03
833,728	1017,16
833,901	693,58
834,074	720,2
834,247	1011,01
834,42	992,58
834,594	685,39
834,767	679,24
834,94	1103,17
835,113	1066,31
835,286	703,82
835,459	734,54
835,632	963,91
835,805	927,05
835,977	783,69
836,15	765,26
836,323	1054,02
836,496	1060,17
836,669	730,44
836,842	867,66
837,015	1408,32
837,188	1346,88
837,36	1097,03
837,533	1137,99
837,706	1496,38
837,879	1905,98
838,051	2258,23
838,224	3970,33
838,397	7652,58
838,569	12997,77
838,742	19559,47
838,915	25648,08
839,087	31040,38
839,26	36135,73
839,433	40053,49
839,605	43727,55
839,778	45476,51
839,95	47497,86
840,123	50770,51
840,295	56345,08
840,468	60584,38
840,64	60934,58
840,813	62570,91
840,985	62695,83
841,158	63187,35
841,33	63488,4
841,502	63838,6
841,675	63834,5
841,847	63357,33
842,019	63398,29
842,192	63807,88
842,364	63818,12
842,536	63613,32
842,709	62638,49
842,881	48231,03
843,053	34702,15
843,225	25764,81
843,398	19100,72
843,57	13235,34
843,742	9217,22
843,914	6749,42
844,086	5145,86
844,258	3630,37
844,43	2987,3
844,602	2698,54
844,775	2377,01
844,947	1887,54
845,119	1643,84
845,291	1865,02
845,463	1570,11
845,635	1375,55
845,807	1215,81
845,979	1365,31
846,15	1269,06
846,322	1041,73
846,494	1078,6
846,666	1219,91
846,838	1387,84
847,01	886,09
847,182	859,46
847,354	1197,38
847,525	1193,28
847,697	986,44
847,869	722,25
848,041	1113,41
848,212	1133,89
848,384	798,03
848,556	871,75
848,727	1033,54
848,899	1111,36
849,071	886,09
849,242	890,18
849,414	1592,64
849,585	1936,7
849,757	2559,28
849,929	3812,64
850,1	5946,62
850,272	7812,32
850,443	9327,81
850,615	10955,95
850,786	12297,37
850,958	13407,37
851,129	13853,83
851,3	13806,72
851,472	13905,03
851,643	13575,3
851,815	12909,71
851,986	12733,59
852,157	12831,89
852,329	12502,17
852,5	11625,64
852,671	10308,79
852,842	8694,99
853,014	6898,92
853,185	4754,7
853,356	3525,92
853,527	2661,68
853,698	2352,43
853,87	1520,96
854,041	1439,04
854,212	1393,98
854,383	1168,71
854,554	759,11
854,725	812,36
854,896	984,39
855,067	859,46
855,238	693,58
855,409	617,8
855,58	888,14
855,751	865,61
855,922	570,7
856,093	1254,72
856,264	875,85
856,435	867,66
856,606	470,35
856,777	562,51
856,948	748,87
857,118	843,08
857,289	642,38
857,46	521,55
857,631	888,14
857,802	816,46
857,972	490,83
858,143	550,22
858,314	775,5
858,484	634,19
858,655	402,77
858,826	462,16
858,996	742,73
859,167	519,5
859,338	462,16
859,508	542,03
859,679	742,73
859,849	828,74
860,02	456,01
860,19	441,68
860,361	918,86
860,531	783,69
860,702	480,59
860,872	609,61
861,043	763,21
861,213	838,98
861,384	443,73
861,554	509,26
861,724	642,38
861,895	838,98
862,065	511,31
862,235	460,11
862,406	638,28
862,576	759,11
862,746	408,91
862,916	456,01
863,087	638,28
863,257	650,57
863,427	439,63
863,597	482,64
863,767	931,14
863,937	601,42
864,108	445,77
864,278	562,51
864,448	951,62
864,618	1107,27
864,788	980,29
864,958	1412,42
865,128	1695,04
865,298	2139,44
865,468	2035
865,638	2313,52
865,808	2725,16
865,978	2868,52
866,148	2604,33
866,318	2813,23
866,487	2700,59
866,657	2966,82
866,827	2620,72
866,997	2673,96
867,167	2649,39
867,337	2759,98
867,506	1955,13
867,676	1805,63
867,846	1621,31
868,016	1363,26
868,185	855,37
868,355	763,21
868,525	873,8
868,694	748,87
868,864	441,68
869,034	511,31
869,203	712,01
869,373	720,2
869,542	462,16
869,712	515,41
869,881	626
870,051	718,15
870,22	329,04
870,39	367,95
870,559	511,31
870,729	490,83
870,898	433,49
871,068	388,43
871,237	640,33
871,406	689,48
871,576	372,05
871,745	392,53
871,914	765,26
872,084	738,63
872,253	431,44
872,422	413,01
872,591	683,34
872,761	605,52
872,93	464,21
873,099	361,81
873,268	666,96
873,437	648,52
873,607	406,86
873,776	404,82
873,945	697,67
874,114	689,48
874,283	376,14
874,452	519,5
874,621	539,98
874,79	589,13
874,959	556,36
875,128	306,51
875,297	585,04
875,466	669
875,635	394,58
875,804	347,47
875,973	562,51
876,142	654,67
876,31	312,66
876,479	249,17
876,648	603,47
876,817	628,04
876,986	349,52
877,155	337,23
877,323	666,96
877,492	664,91
877,661	431,44
877,829	347,47
877,998	499,02
878,167	628,04
878,335	343,38
878,504	281,94
878,673	492,88
878,841	623,95
879,01	265,55
879,178	232,79
879,347	388,43
879,515	738,63
879,684	343,38
879,852	238,93
880,021	556,36
880,189	566,6
880,358	222,55
880,526	406,86
880,695	496,97
880,863	652,62
881,031	306,51
881,2	232,79
881,368	605,52
881,536	593,23
881,705	310,61
881,873	318,8
882,041	728,39
882,21	458,06
882,378	265,55
882,546	326,99
882,714	595,28
882,882	615,76
883,05	380,24
883,219	413,01
883,387	634,19
883,555	765,26
883,723	306,51
883,891	390,48
884,059	603,47
884,227	662,86
884,395	320,85
884,563	398,67
884,731	603,47
884,899	699,72
885,067	343,38
885,235	396,62
885,403	568,65
885,571	656,72
885,739	359,76
